Fz,C3,Cz,C4,Pz,PO7,Oz,PO8,time_sec
-2.155208727620578,15.356928260582201,-1.07750446787277,2.0421025833899353,16.11302961104106,8.272570677699798,11.856521291949248,9.792751691072265,-3.0
-1.9930644397097579,16.627037325983416,0.02123271737892196,2.826493166025622,17.43084116157238,8.916344141559021,12.753870883251665,10.81846539449466,-2.996
-1.8562484609991117,17.774509502850336,1.0888179364637791,3.5435140213240572,18.741431808135513,9.516962762903974,13.597794784849338,11.773210310200936,-2.992
-1.7362174883390002,18.767288431934414,2.0984345895621876,4.171109463351005,20.011881346323594,10.051791609712488,14.367240497740735,12.629898635166454,-2.988
-1.626763150971854,19.57721598472993,3.025327282222757,4.690540765521696,21.210960800061585,10.501248373572603,15.045434656503112,13.368554856303932,-2.984
-1.524330379595817,20.181854803623665,3.8482379737626293,5.087628285375672,22.310823907382588,10.850551505621059,15.620819567983308,13.977491075469448,-2.98
-1.4281014908362053,20.565969252997697,4.550596208468776,5.353711285969789,23.288394115350684,11.090968983448747,16.087509531838542,14.453837795369601,-2.976
-1.339903934243556,20.72250484263212,5.121336136681688,5.486186299208267,24.126328709642227,11.220405421792245,16.445204879231927,14.803350229413649,-2.972
-1.2640029212563784,20.652965336673333,5.555259656203559,5.488534918610354,24.813499370411556,11.24327009708057,16.698565068462607,15.039489682294079,-2.968
-1.2068143429302705,20.367178273517137,5.85294098322087,5.369840545142884,25.345016608092514,11.169704544174278,16.856151339233406,15.181897373170719,-2.964
-1.1765387420379207,19.88253350131915,6.020243706103212,5.143887842408962,25.72190983875025,11.014372244666365,16.929161861530677,15.25448848269152,-2.96
-1.1827110501177218,19.222828152631894,6.067553380109231,4.827988017219456,25.95060388231125,10.795065204174556,16.93022652623693,15.283434858821717,-2.956
-1.2356948243157593,18.416838286999223,6.0088059020343145,4.441659172561234,26.04229185289349,10.531343536684977,16.872471966360614,15.29525939547932,-2.952
-1.346182815908322,17.496705512648756,5.860360459287964,4.0052560383994855,26.012243350392453,10.243345762782567,16.768956161118076,15.315185275601845,-2.948
-1.5247511345139202,16.496229424400568,5.6397768424296375,3.538638914773209,25.87906197787587,9.950851220985742,16.632473256285454,15.365823930536685,-2.944
-1.7814600827798968,15.449190571173197,5.36460241119152,3.059994060695347,25.663915437650623,9.67264424727458,16.475658226708116,15.4662446116843,-2.94
-2.125448315876187,14.387849823318763,5.051305557677968,2.5849250195189475,25.389766464219036,9.426188337885643,16.31126011265905,15.631418785919497,-2.936
-2.5644562629827226,13.341755058108237,4.714484310712129,2.125906393993227,25.080620752446052,9.227561687370528,16.15241049781374,15.871980106054941,-2.932
-3.1042333711265657,12.336945966779929,4.36644132500674,1.6921419143126615,24.760797144590633,9.091562195464686,16.012721344462893,16.194215729215216,-2.928
-3.7478166023487143,11.395598067568375,4.017166761081029,1.2898154094125935,24.454229527127957,9.031881945953126,15.906111614683894,16.600218798732428,-2.924
-4.494705139501288,10.536093640098695,3.6747164578424707,0.9226757897251359,24.18382369418037,9.061270919984992,15.846358270817689,17.08816745489699,-2.92
-5.339995995465853,9.773450257313847,3.3459151384046213,0.5928565987707612,23.970897270298604,9.191630100149766,15.84644782343066,17.652720563967584,-2.916
-6.273593238472974,9.119973193409862,3.0372483703249458,0.3017891382632163,23.834704716708494,9.433968672398018,15.917827491921969,18.285504840276836,-2.912
-7.2796600394678075,8.585930602126862,2.7557359818137357,0.05102231058720452,23.791988954142536,9.798128308797528,16.069614673971,18.975611352313287,-2.908
-8.33651795766859,8.18001163573313,2.5095367193814098,-0.15726116830345305,23.856443541256795,10.292158944865104,16.307767265082425,19.70996720591324,-2.904
-9.41715959787005,7.909368464063361,2.308073085232089,-0.3201929245529831,24.03797811077586,10.921281682615705,16.63421496687447,20.47346732084967,-2.9
-10.49040727292931,7.779183589850289,2.1616083135373314,-0.4346486216177077,24.3417860834966,11.686513670218906,17.04603093991561,21.24886741266524,-2.896
-11.522574333446045,7.791889768664619,2.08039874035721,-0.4979949029183661,24.767369170333886,12.583198401816539,17.534832591495437,22.016596281943066,-2.892
-12.479363150490826,7.946301498767118,2.073681091886397,-0.5088726405118358,25.30777862673228,13.599783056820138,18.086646754464617,22.754740769366272,-2.888
-13.327719987858462,8.236932582133948,2.148770184840853,-0.46774524970809406,25.949324099477437,14.717157472242617,18.68240751833627,23.439428545079984,-2.884
-14.03744103240641,8.653691137149075,2.310455028216743,-0.3770528009037415,26.671893031210054,15.908745339914152,19.299106210639295,24.04570611156271,-2.88
-14.582429529339485,9.182020460103118,2.5607522116606933,-0.2409572658824164,27.449878704228134,17.14138397091379,19.911454748701857,24.54885392985509,-2.876
-14.941600544759709,9.803439509464841,2.898957864036859,-0.06478486947330886,28.253587658320072,18.37689443237052,20.493810511162636,24.92595788740438,-2.872
-15.099498715971336,10.496356200956814,3.321862814646863,0.1456578223476761,29.050917262728916,19.5741501386141,21.022063676122976,25.157493240466152,-2.868
-15.046724458835403,11.236993421752302,3.8239739711199316,0.3847029438081355,29.809072565970226,20.69140379722615,21.475204464922033,25.2286745959375,-2.864
-14.780248839382136,12.000286045355463,4.397620313438825,0.6472221756980483,30.496125932457645,21.68862948226868,21.83635566537193,25.13037149877948,-2.86
-14.303641030501929,12.760670036328147,5.032902958421839,0.9287356015880661,31.082302173488152,22.529676935290503,22.093163696512427,24.859471835146465,-2.856
-13.627154879997871,13.492771766455135,5.717551244965849,1.2252571278002193,31.540976546813106,23.18411012705665,22.237578595855467,24.418686307370166,-2.852
-12.767556964146856,14.172084216361306,6.4368347332752816,1.5329988228451503,31.849470857349836,23.628685342339864,22.265192207955234,23.81590712776825,-2.848
-11.74756588137226,14.775749112191807,7.173714239303269,1.8481028552952221,31.989781444832047,23.848476611247225,22.17439190931361,23.063319074309284,-2.844
-10.59483105758066,15.283527800559241,7.909370314042986,2.166544176461123,31.94934366360684,23.837653576611373,21.96557956443405,22.176467100512713,-2.84
-9.340488952611192,15.67895291415022,8.62414089984053,2.4842635719400166,31.72184647128188,23.599875578627568,21.64061602673473,21.173415944986424,-2.836
-8.017441411345668,15.950555358237324,9.29878312102608,2.797498097455314,31.3080155690147,23.14823633535172,21.202551742999297,20.074054054455942,-2.832
-6.65855464917614,16.093003934969047,9.91589889995347,3.103222462578504,30.71623755487424,22.50471507095902,20.655652811066364,18.89955441718352,-2.828
-5.294969105357221,16.107988717915564,10.461343557647318,3.399610979341057,29.962905959450076,21.699152061234564,20.005720349035972,17.672006675203278,-2.824
-3.9546737421170812,16.004697928529385,10.925444130518233,3.6864450037265666,29.072395277963537,20.767821326584635,19.2606775050291,16.414230170037154,-2.82
-2.6614715723131743,15.799753266682508,11.303859390722563,3.965389213261643,28.0765756890042,19.7516817854118,18.43133053756583,15.14972966409889,-2.816
-1.434449415198519,15.516484022683606,11.597918504943223,4.240039433641265,27.013773118767105,18.694357178752636,17.53211715351969,13.90267524214038,-2.812
-0.2880304832634879,15.18346922167904,11.814313593763602,4.515642497413477,25.927097808786726,17.639871040983937,16.581595047925152,12.697728138294266,-2.808
0.7673964655458017,14.832383287391703,11.964118931992349,4.798442574998839,24.862145795869704,16.630189557721692,15.602450060373783,11.55954993238286,-2.804
1.7243980133025403,14.495322518069411,12.061246338703445,5.094711638120401,23.864209653264496,15.702701299313953,14.620917386723109,10.511932214056404,-2.8
2.57719548967755,14.201910558687999,12.120566276949106,5.409623979405698,22.97526120146303,14.887844121302116,13.665653928222639,9.576618550166879,-2.796
3.3204095723652913,13.976536891340995,12.155982242922473,5.746188348467314,22.231037689836477,14.207129113450886,12.766207439296725,8.771994686859474,-2.792
3.948088831189045,13.83606938898998,12.178737932604736,6.104445750617492,21.658561645613602,13.67179390269987,11.951269309692371,8.111860837005981,-2.788
4.453194797064227,13.788319828218597,12.196183721132671,6.48109338879612,21.274369929294963,13.282256015971962,11.246892000320836,7.604479098445633,-2.784
4.827637034843073,13.831445888626689,12.211150517827537,6.869623769735046,21.08363967746741,13.028452572499498,10.674840456788397,7.252040624463919,-2.78
5.062869054711416,13.954354889156367,12.221987059305993,7.260983890084445,21.080292585906186,12.891062270996803,10.251250587816001,7.050646593079246,-2.776
5.15097059402218,14.13804699729381,12.22322158494998,7.644672386891344,21.24804529517469,12.843516339531796,9.985765896454543,6.99084553186567,-2.772
5.086054445326627,14.357712854304683,12.20671719113813,8.010110189258743,21.562257654840046,12.854611795236064,9.881271112450355,7.058698065758157,-2.768
4.865753747416511,14.585294177448155,12.163106225296254,8.348049021964655,21.992317788882477,12.891441623686928,9.934219812394694,7.237236348452865,-2.7640000000000002
4.492491806442791,14.792146058718547,12.083229403365845,8.651739754243787,22.50421581537813,12.922277728277844,10.135399034301123,7.508073101442555,-2.76
3.9742475344695998,14.951437125175485,11.959302476050295,8.917600812389948,23.062937117256396,12.919031058031619,10.470863173107016,7.852849377402112,-2.7560000000000002
3.3246282154457574,15.040006916260765,11.785610944368713,9.145227534018268,23.634379697173955,12.859000569097917,10.9227648445597,8.254238017857103,-2.752
2.56222816146993,15.039549590273506,11.558676795729749,9.336749131951931,24.186654134097537,12.725790382387812,11.469923120899907,8.69634758654859,-2.748
1.7094274571608796,14.937155225053559,11.276996624670666,9.49571343428633,24.690801758623095,12.509458629151466,12.088147634306704,9.164558000590308,-2.7439999999999998
0.7909039189502707,14.725356641515749,10.940556118300687,9.6257954646989,25.121098919553464,12.206092372788211,12.750490277776024,9.64499088891631,-2.74
-0.1678417193983739,14.401871527839472,10.550348149515216,9.72964855356975,25.455163826383746,11.817048378309284,13.427655007468735,10.123907600508733,-2.7359999999999998
-1.1417068634922316,13.969203458328295,10.108067516899979,9.808151733884472,25.6740529468587,11.348072836144127,14.088753873649084,10.587312872166574,-2.732
-2.1068270325016316,13.43419880508867,9.61605793972656,9.860185926980911,25.762458030954136,10.80844828304874,14.702492730972235,11.02094642365755,-2.7279999999999998
-3.0410356235493685,12.807579295613635,9.077483043280298,9.882929846699797,25.709023460653285,10.210241100629169,15.238744260692926,11.410709191240047,-2.724
-3.924055422539575,12.103404554147875,8.496608862631653,9.872536236388122,25.50671719855029,9.567653014633278,15.67034573185556,11.743430792039703,-2.7199999999999998
-4.737602591774201,11.338382143685589,7.879037201279257,9.824958783145325,25.153125218704176,8.896423013717586,15.974866655592324,12.007771320028091,-2.716
-5.465588752941376,10.530950377016357,7.231731233478252,9.736676963032949,24.650522231858687,8.213194393622064,16.136053894894587,12.194997227958302,-2.712
-6.094538419531845,9.700120477552922,6.56273565845923,9.605124927450262,24.005619133398824,7.53477336228075,16.14470267746819,12.299403561947667,-2.708
-6.6142179722638526,8.864163883326633,5.880599829708833,9.428754952074014,23.228990648066457,6.877267045269939,15.998821982367623,12.318269271348123,-2.704
-7.018349925852514,8.039322797745243,5.193621398767032,9.206804929439995,22.3342999098174,6.255175319846162,15.703125731572829,12.251385863654871,-2.7
-7.305216665288685,7.238758542335454,4.5090906463606855,8.938933473320146,21.337502744299865,5.680576189250548,15.268027450993776,12.10033072989358,-2.696
-7.477965039204075,6.4719143050498715,3.832707992367978,8.62490446481004,20.25620223828315,5.1625530925936225,14.708397144635388,11.867721334276151,-2.692
-7.54449001929759,5.7443804077170455,3.1682861026939766,8.264457817910056,19.10924859496054,4.706965298826359,14.042340790985484,11.556677748070847,-2.688
-7.516861281168263,5.058257367119669,2.5177752862589475,7.8574327386967,17.916585468159372,4.316590255526312,13.290199477003666,11.17065543803064,-2.684
-7.410327763619745,4.412948001500961,1.8815991120440392,7.404144550657529,16.699273316760085,3.991602934017081,12.47386435279553,10.713710209724253,-2.68
-7.2419863833412235,3.806274911213043,1.259257672479468,6.905962346271277,15.479585913827687,3.7303137291137296,11.616395549254436,10.191144076919155,-2.676
-7.029245317935843,3.2357935397171254,0.6501287115972771,6.365984576930758,14.281065657168309,3.530054714198768,10.74184237592059,9.610375114332719,-2.672
-6.788255058423329,2.7001418698335957,0.054360294772903384,5.789665721821374,13.128423041999769,3.3880782800807636,9.875105391796794,8.981799469742814,-2.668
-6.532505926988152,2.2002468238491666,-0.5262840523237609,5.185230682889799,12.047179438459878,3.3023253344759302,9.041672585639235,8.31939593573772,-2.664
-6.271775751737782,1.7402164237003692,-1.0877707921388273,4.563746506142927,11.062994130404645,3.2719501072789465,8.267109578168638,7.640877456565958,-2.66
-6.011550925861152,1.3277923977006747,-1.6234418644561561,3.938799062281152,10.200684473621205,3.2975497542471928,7.576272962900331,6.967303575414509,-2.656
-5.75295879235306,0.9743022995129564,-2.1240158154834976,3.325811521796247,9.483015325696483,3.3811073776439575,6.99230781268232,6.322188734788179,-2.652
-5.493164583819019,0.6941130809008076,-2.5779462341756876,2.741109330812873,8.9293766282412,3.5256925412635067,6.535550424500229,5.73023188101965,-2.648
-5.226115130213718,0.5036473719866015,-2.9720873548181572,2.2008768643188077,8.554489695036409,3.734982597997004,6.222482346824903,5.215840930322199,-2.644
-4.943466236063361,0.42008017014198895,-3.292567521783706,1.7201680025128248,8.36729508295447,4.012687815839592,6.064883213280558,4.801638081151146,-2.64
-4.635530064977606,0.45987073679198787,-3.5257432151611727,1.312117417276168,8.370168983996154,4.361974449727724,6.069301624415305,4.50710862956552,-2.636
-4.292130563612186,0.6372819669531822,-3.6591204470553347,0.9874401956326029,8.558571613342822,4.784959547785234,6.236889967117515,4.3474929461883915,-2.632
-3.903341133712785,0.9629952596668563,-3.682186090017101,0.7542129403174398,8.92114839139198,5.282293614545622,6.563542525218585,4.33293328189362,-2.628
-3.460164858268759,1.4428631498260227,-3.5871644510930736,0.6178305722617736,9.440207759815085,5.852774959585133,7.040183821554656,4.467812690449786,-2.624
-2.95526351201264,2.076791678153551,-3.3697643845411465,0.5809736658694122,10.092430466024204,6.492895717132582,7.653027756182383,4.750203777202669,-2.62
-2.3838166167758272,2.85774604995051,-3.02997346700257,0.6434373432976921,10.849660246718473,7.19624191124008,8.383685803276965,5.171392195608395,-2.616
-1.7444975477927978,3.7709337477685345,-2.5728816256477263,0.8017668368106774,11.67968936604528,7.9527597757229795,9.209118391594043,5.7155266503266615,-2.612
-1.040430883508753,4.7933066458937486,-2.0094080941260453,1.0487798287871781,12.547053172239137,8.748018550465401,10.10154954863569,6.359529954274887,-2.608
-0.2799053398004716,5.893582678569816,-1.3567184286704057,1.3731707270887235,13.413933505219209,9.562688443909378,11.02855037808425,7.073444701943704,-2.604
0.5233882633478322,7.032968472669069,-0.6381088435575366,1.7594270282460434,14.241289206132993,10.372461198777916,11.953499691338209,7.821352634446436,-2.6
1.350734883522029,8.166655814090873,0.11777580510767205,2.1882194285281003,14.990263401729973,11.148556259028469,12.83654068250376,8.562896434714633,-2.596
2.1793892071838186,9.246010216757817,0.8783734078463148,2.6372912797621417,15.62379729268268,11.858817720458271,13.63601406523804,9.255288718047685,-2.592
2.984059789854726,10.221240388240826,1.6091270748300026,3.082740419317971,16.10827971795457,12.469285432982028,14.310235357201407,9.855585299517506,-2.588
3.738687950972374,11.044281982759337,2.2756626485408313,3.500511800238483,16.415036108011986,12.946066969709143,14.819451072150816,10.322980081168495,-2.584
4.418313298601335,11.671645977612723,2.8459790756303858,3.8679109943628287,16.521512380937324,13.257343353428148,15.127847839284327,10.620941483930839,-2.58
5.000837605163859,12.067032352613854,3.29244824756568,4.164981524503402,16.41209607789764,13.375370827828386,15.205541459211272,10.719099202839638,-2.576
5.46852859517,12.203552813216547,3.593472979062526,4.375634788626117,16.078588919606503,13.278357426957689,15.030486020598087,10.594848803044613,-2.572
5.809133850612736,12.065423051957293,3.734696259729051,4.488461326338294,15.520374492697133,12.952086571163726,14.590206494053586,10.234650763976559,-2.568
6.0165009500585915,11.64898239752003,3.7096837128007842,4.497177307500307,14.744311198305084,12.391141926775964,13.883196877151766,9.634973091186115,-2.564
6.090632748137393,10.962905298950801,3.520022852152927,4.400676392604298,13.764346359556788,11.599582585350587,12.919777658032928,8.802790834516962,-2.56
6.037162248617996,10.027518870856301,3.174818613254161,4.202683080611344,12.600827075107048,10.590950774032812,11.722205719036205,7.755541695628569,-2.556
5.866313789241216,8.87324490372281,2.6896276880555092,3.9110497786213756,11.279500077466968,9.387572996638973,10.323892163778574,6.520461096074406,-2.552
5.591505025119325,7.538316064776952,2.0849507299849805,3.5367933255637087,9.83024052729988,8.019218608680394,8.76769730894475,5.133279160431348,-2.548
5.227802206748686,6.066025591054586,1.3844609173039468,3.093003370425519,8.285602123671799,6.521271997218714,7.103410622129392,3.636340999272165,-2.544
4.790450614274281,4.5018250600401135,0.6131724546419854,2.593764812939873,6.679317629837631,4.932632067575919,5.384658942521318,2.076294761200942,-2.54
4.293675930883719,2.890588913034385,-0.20424689309404265,2.05323026484926,5.044897521729472,3.293575191643021,3.6655901087245697,0.5015631946879306,-2.536
3.7499113518074076,1.2743326224877407,-1.0448269444613798,1.48496417951496,3.4144746131073536,1.643811664771759,1.997719350976861,-1.0401482985701715,-2.532
3.1695449198117194,-0.30940005797737324,-1.8881549739506527,0.901643465202441,1.8180089379841187,0.020922877857372124,0.42727832939543653,-2.5040751825705065,-2.528
2.561185706075309,-1.8283876660293448,-2.7166747422060844,0.3151232530478021,0.2828864136363851,-1.5407257905182015,-1.0067239299150508,-3.8501998460671416,-2.524
1.9323281574520008,-3.2558809940194475,-3.5154795108258963,-0.2632240688527103,-1.1661641063996022,-3.0106274803277175,-2.2736878709178576,-5.044601860335776,-2.52
1.2901955871455764,-4.570249987574519,-4.271772186091657,-0.8220705869500726,-2.5070005036850915,-4.362474422881618,-3.351960019162341,-6.060401587210352,-2.516
0.6425086654837031,-5.7543936030092695,-4.974230977369089,-1.3497959861459252,-3.720038670997619,-5.57438656757429,-4.228890958625275,-6.87838049377606,-2.512
-0.0020311315627141724,-6.795159271765172,-5.61250802705197,-1.8344114359810542,-4.788417224442435,-6.629180897448939,-4.900573587155028,-7.48734160312841,-2.508
-0.6336466297442831,-7.68292796767438,-6.1770104967453054,-2.2638107741086295,-5.698410246552854,-7.514733922255759,-5.37135061797291,-7.884218929222683,-2.504
-1.2417647062722095,-8.411412174550966,-6.659012496164641,-2.626317621227212,-6.440040820710035,-8.224387421859381,-5.65310763907609,-8.073897287571643,-2.5
-1.8155870942421934,-8.977645230306374,-7.051073875542837,-2.911443855739459,-7.007792912576134,-8.757301287885214,-5.764343469851605,-8.06870555159496,-2.496
-2.344859584176535,-9.38212206602997,-7.347708430596295,-3.110770397002243,-7.401313728164313,-9.118669051763904,-5.729029679944908,-7.887590392128519,-2.492
-2.820757855388112,-9.629044359225894,-7.5462150209999574,-3.2188639474165397,-7.626000712825283,-9.319732677673814,-5.5752893059333,-7.555013887837408,-2.488
-3.2367992996068944,-9.726594699428984,-7.647536111399544,-3.2341235819838863,-7.693349305207283,-9.37752730861621,-5.333917478751392,-7.099620696302281,-2.484
-3.5896630496332866,-9.68712181881727,-7.656958023285295,-3.1594228201376593,-7.6209167624583305,-9.314262881405394,-5.036754278849845,-6.552709733255906,-2.48
-3.8797819195881376,-9.527090757663906,-7.584452750051714,-3.0024071424797727,-7.431765676886338,-9.156239553408774,-4.714926372209117,-5.9465470342775575,-2.476
-4.111581062590987,-9.266660390437622,-7.444503145222763,-2.7753400054031103,-7.153303066222366,-8.932225732406813,-4.397002075567258,-5.312574143674739,-2.472
-4.293283548405415,-8.928804858823362,-7.25534746510089,-2.4944590905569193,-6.815524935334315,-8.671315146028721,-4.107151178236931,-4.6795986202187105,-2.468
-4.436274991336192,-8.537990100298511,-7.0377034466325,-2.178893968161106,-6.448799515419216,-8.400412162387157,-3.8634627108830166,-4.07210256339371,-2.464
-4.554102163699269,-8.11853214236277,-6.813154439431557,-1.849286882894392,-6.081450910392798,-8.141633656344197,-3.6766364728652636,-3.508862724833069,-2.46
-4.66125447347692,-7.69286950844126,-6.6024677182800655,-1.5263293097323811,-5.737503571289844,-7.9100118136919475,-3.549299523817867,-3.002114880037812,-2.456
-4.771920089013887,-7.28004201617617,-6.424139290715983,-1.2294540938290073,-5.434976899032433,-7.711897616662383,-3.4761737391982823,-2.5574787477144625,-2.452
-4.898898060856028,-6.894648738214137,-6.293399597222047,-0.9758804450938752,-5.185044796312502,-7.544381351086533,-3.4452091011010744,-2.1747554413288768,-2.448
-5.052776804304519,-6.546448359672154,-6.22177481499814,-0.780092241694835,-4.992195295769632,-7.395873172357922,-3.439607119188741,-1.8495190632942275,-2.444
-5.241386697232332,-6.2406023898747245,-6.217128848767281,-0.6536819322275562,-4.855294841043431,-7.247770813312254,-3.44045184116856,-1.5752112962608145,-2.44
-5.469455954915406,-5.97841654397569,-6.283989015873731,-0.6053865373748826,-4.769271009871421,-7.076954183960128,-3.4295302594885904,-1.3453114231531575,-2.436
-5.738381694968358,-5.758360521935996,-6.423932549116591,-0.6411270321719664,-4.727040893005952,-6.858737941401919,-3.39190694167959,-1.1551536394703845,-2.432
-6.046064047674855,-5.577145011610474,-6.635870010342792,-0.7639283290468435,-4.721332077825142,-6.5698888336382035,-3.317901242926011,-1.0030811933128163,-2.428
-6.3868053316178885,-5.430680604563182,-6.916157733975725,-0.9736968305391347,-4.746129596526867,-6.191355585281774,-3.20424973288803,-0.8907981872831723,-2.424
-6.7513150431319096,-5.314805369975398,-7.258556137514159,-1.2669142756682183,-4.797587692013824,-5.71043887915516,-3.0543727766746898,-0.8229373931383694,-2.42
-7.126868299723806,-5.225724084528075,-7.65409799121289,-1.6363407499020295,-4.874337658279682,-5.122219687682637,-2.8777712018778523,-0.8059670107215577,-2.416
-7.497653001689902,-5.160154334685005,-8.090950494697337,-2.07081864219111,-4.977203880192112,-4.430154497258134,-2.6886617421386028,-0.8466220073216135,-2.412
-7.845338584185401,-5.115239663791396,-8.554376680183658,-2.5552702262681466,-5.10843118185784,-3.645845006988804,-2.5040476747411997,-0.9501063562556666,-2.408
-8.149910750199918,-5.088358127016701,-9.026926841908036,-3.0709928126114177,-5.270620948385943,-2.788093414888691,-2.3415120793257174,-1.118374802120389,-2.404
-8.39080644262885,-5.076978843714402,-9.488979532867889,-3.5963394183568242,-5.465621840549602,-1.8814265153811605,-2.2170643806505375,-1.3488137796826845,-2.4
-8.548322640995597,-5.078666957230915,-9.919674597571378,-4.1077997635951995,-5.693586530434006,-0.9542842558159341,-2.143326989089015,-1.6335583181373412,-2.396
-8.60518405797146,-5.0912392437206115,-10.298167277904087,-4.581394734891566,-5.9523168887437805,-0.037042730682859626,-2.1282482422954647,-1.9595380262934299,-2.392
-8.54809173317662,-5.112994983138302,-10.60504645308498,-4.994228105236292,-6.236942257172139,0.8399741907015985,-2.1744390605951978,-2.3092195800308346,-2.388
-8.369064324247791,-5.142925226986883,-10.823734280490148,-5.326029534077029,-6.5399409681130845,1.64833243529704,-2.2791808675055876,-2.661946653226357,-2.384
-8.066409828891999,-5.180820099723237,-10.941699231324321,-5.56054696907559,-6.851499073852354,2.363015117041608,-2.4351014012099306,-2.9957400955403877,-2.38
-7.645198543952206,-5.2272138907216545,-10.951336396503114,-5.686665894618656,-7.160164179483841,2.963529698552774,-2.631414040739564,-3.2893590896617653,-2.376
-7.117141675872701,-5.283122271346917,-10.850391816651877,-5.699138626577188,-7.453695043495747,3.4345729773172047,-2.8554828417342186,-3.5243402692851724,-2.372
-6.4998301330884525,-5.349551206609677,-10.64185046772571,-5.5988214483740215,-7.719964733112823,3.7663147534272357,-3.0943933972986883,-3.686693535361613,-2.368
-5.815367639098999,-5.426806397750741,-10.333283431882974,-5.392363628526982,-7.947777803869192,3.9543992742775846,-3.336241820831626,-3.767996998170334,-2.364
-5.088534700495365,-5.513700486165391,-9.935748930086682,-5.091371871408164,-8.127510529203006,3.999746814697639,-3.570981454762581,-3.7657821156498574,-2.36
-4.344723920531169,-5.606826669894209,-9.46244127460318,-4.711171485479065,-8.251558497978765,3.9081793341527393,-3.7908248407172866,-3.6832716871223283,-2.356
-3.6079610885342985,-5.700116022963494,-8.927351422471766,-4.269373500746578,-8.314650180487613,3.689828493975113,-3.9903302676753363,-3.5286718043925305,-2.352
-2.899326048027457,-5.784880410364093,-8.344202316074337,-3.7844900161736694,-8.314116323851126,3.358266643612823,-4.166360077523617,-3.314276185240269,-2.348
-2.2359811950573194,-5.850433372469675,-7.725824924467849,-3.2747825745207955,-8.250159208273393,2.929369694814415,-4.318051476863303,-3.05558536953788,-2.344
-1.630833273692974,-5.885207810726214,-7.083978282968609,-2.7574034998916854,-8.126065457284847,2.420042728528934,-4.446819536277655,-2.7705037456496378,-2.34
-1.0926833742578763,-5.878136813943906,-6.429471321958941,-2.2477746528347224,-7.948227098148058,1.8470278627115013,-4.55630190868877,-2.4785465042204766,-2.336
-0.6266363197863543,-5.820002915952852,-5.77238187720474,-1.7591027989966515,-7.725837621121011,1.2260096799442721,-4.65212338853418,-2.199944154109227,-2.332
-0.23455759633071782,-5.704500870350486,-5.122195517707256,-1.3019568830019748,-7.470210211993505,0.5711470092718632,-4.74140645773884,-1.9545799042113803,-2.328
0.0845491424782212,-5.528865994015681,-4.487770667027144,-0.8838946750838366,-7.193780444631786,-0.10496197239488664,-4.83204090926993,-1.7607906023696902,-2.324
0.3342623325354124,-5.29405032021463,-3.877137824764622,-0.5091904408783847,-6.908960049277757,-0.790991503958917,-4.931814528935451,-1.6341577736486688,-2.32
0.5204872784668044,-5.0045395411889535,-3.2972249912808174,-0.1787579888594797,-6.627068342712663,-1.4764703019837204,-5.0475714896102275,-1.5864768148322455,-2.316
0.6511112734779401,-4.667958359744346,-2.7536394887440183,0.10963424251177045,-6.357559806858225,-2.151447281317073,-5.1845762993307165,-1.625090678165586,-2.3120000000000003
0.7354788730214574,-4.294595460255054,-2.2506149019613986,0.3608060678376255,-6.107684331056683,-2.8063937762294455,-5.346198614797789,-1.7526966018406878,-2.308
0.7836675872062395,-3.8969134529494642,-1.7911666724464501,0.5812948928586641,-5.882588798250923,-3.4323762124351713,-5.533921027445878,-1.9676102323261517,-2.3040000000000003
0.805620792233448,-3.489038796255778,-1.377426835714778,0.7782731598436143,-5.685748505778923,-4.021413015503682,-5.747570834242902,-2.26436623919464,-2.3
0.8102478622386222,-3.0861843650734437,-1.0110734473477736,0.9583978139619678,-5.519545574934057,-4.566858260898629,-5.985635252994747,-2.634495364870533,-2.2960000000000003
0.8046281211333621,-2.7039461394902977,-0.6937362310873212,1.1267495245653283,-5.385794308564929,-5.063645893253312,-6.2455322488035385,-3.0673348525850646,-2.292
0.7934608247438746,-2.357426105419343,-0.42724434752168516,1.2860164081494228,-5.286036505330912,-5.508269785312598,-6.523743900908423,-3.5507611493707536,-2.2880000000000003
0.7788828858725694,-2.0601654026168728,-0.21359593752437123,1.4360538028437047,-5.2214878927734745,-5.898450488037321,-6.815763404566097,-4.071762398463598,-2.284
0.7607167713572487,-1.8229332814935164,-0.05459044537312874,1.5738924307991917,-5.192615375934464,-6.232537298321506,-7.115873350158223,-4.616813067109028,-2.2800000000000002
0.7371137126189264,-1.6525056201886628,0.048827551418491044,1.6941704821961876,-5.19845363442162,-6.508796777300985,-7.416862306512149,-5.1720904027430255,-2.276
0.7054517549786805,-1.5506502514157487,0.09734852651918402,1.7898624180885445,-5.235885236720012,-6.724812845690054,-7.709860156960984,-5.723654413969356,-2.2720000000000002
0.6632809216436302,-1.5135667156737993,0.09397164142205394,1.8531172770588364,-5.299155053540883,-6.87723123519004,-7.984480926680616,-6.257746935056634,-2.268
0.6091111429365821,-1.5319744216209745,0.04436154851580465,1.8760311199499853,-5.379840054330769,-6.962007164758598,-8.22939249538918,-6.761325453327231,-2.2640000000000002
0.5429105423409419,-1.5919147527206743,-0.043222392358585715,1.8512538574224982,-5.467366775506354,-6.975179681735636,-8.43331327752467,-7.2228504685347055,-2.26
0.46629055119538965,-1.6761718431647257,-0.15839863004275,1.772434324411833,-5.550007665027765,-6.914043398131485,-8.586306030086801,-7.633227394101958,-2.2560000000000002
0.38245468453442566,-1.7660784184293554,-0.2893939473447573,1.63459256393784,-5.616149451397602,-6.778468216808854,-8.681134541401752,-7.986704863168008,-2.252
0.296037182386768,-1.8434040126322122,-0.423837004834307,1.4345341093186708,-5.655557721190975,-6.572068766709863,-8.714401360379147,-8.281487948063155,-2.248
0.21293735728525842,-1.8920411502042214,-0.5494519951820322,1.1713737633489592,-5.660380552746364,-6.302959408246717,-8.687210477297034,-8.519857258092948,-2.2439999999999998
0.14018508905540994,-1.8992890852900919,-0.6545779588745351,0.8471421482584818,-5.625721879841937,-5.9839265485597375,-8.605189173120879,-8.707682510403199,-2.24
0.08579722873436602,-1.8566400559907743,-0.7285322021793181,0.4673571082006358,-5.549730972119686,-5.631968713595389,-8.47783142030105,-8.853349707874678,-2.2359999999999998
0.058539488403365425,-1.760066462884362,-0.7618942267724549,0.04139295148234989,-5.433261416739429,-5.267265203941137,-8.317262832134821,-8.96625092471717,-2.232
0.0675050123651113,-1.6098779179967906,-0.7467984260692848,-0.4175134658008375,-5.279229746224784,-4.911719716037254,-8.136645395557773,-9.055085155453046,-2.2279999999999998
0.12146110672083221,-1.410255973141875,-0.6772907088756908,-0.8927190708752573,-5.09183212271285,-4.587269425277781,-7.948500451689119,-9.126254441693394,-2.224
0.22799918257598684,-1.1685667187958053,-0.5497311384370853,-1.3650809142460298,-4.875743076612659,-4.31413461827941,-7.763196617621565,-9.182587234160472,-2.2199999999999998
0.39262519199892676,-0.8945041434764542,-0.36313892584597607,-1.8141713872454632,-4.635341973431633,-4.109119501060016,-7.587739528844692,-9.222502402888331,-2.216
0.6179930240914775,-0.5990743088084081,-0.11933091749982827,-2.2195781955971574,-4.373950157701993,-3.984014689696139,-7.424885501582244,-9.239615064424736,-2.2119999999999997
0.9034674570055383,-0.29343519614127445,0.17726266449826023,-2.562073650864695,-4.093065436634978,-3.944148161115099,-7.2725529303738465,-9.222742067586921,-2.208
1.2451151495280808,0.0123426119614507,0.5201267904256714,-2.824525243839398,-3.7916436724722775,-3.987182159339078,-7.123529727811574,-9.156287507330745,-2.2039999999999997
1.636108910490396,0.31047103313940294,0.9014496715696247,-2.992532125581035,-3.465550300277002,-4.10231256774306,-6.965527209462605,-9.02102998357244,-2.2
2.067438386925202,0.5964416500442749,1.3130125469952665,-3.0548591958047835,-3.1073420921219697,-4.270051101181126,-6.781666688184936,-8.795354368730823,-2.1959999999999997
2.5287779311290532,0.8696869269590852,1.7470095625062854,-3.003770908000817,-2.7065183327717808,-4.462739206633868,-6.551478245368347,-8.456949987979794,-2.192
3.0093741453194514,1.133825627804823,2.19667224653913,-2.8353353875247884,-2.250301666315032,-4.645858097096368,-6.252428133827092,-7.984923494619874,-2.1879999999999997
3.4988541983014545,1.396482633791699,2.6566470974203424,-2.5497058699955595,-1.7249032474279549,-4.780089000039402,-5.8618867553756875,-7.362165990089061,-2.184
3.987881470725555,1.6687168977664975,3.1231290566699785,-2.1513382951127324,-1.1171408350215302,-4.823980425104246,-5.359350323466325,-6.577720573139356,-2.18
4.46858608866978,1.964100690567781,3.593768677062395,-1.649093391164576,-0.4162350820671161,-4.7370143496993675,-4.728678419810169,-5.628862084292507,-2.176
4.934702709220845,2.2974985454896544,4.067370431193035,-1.056180478621318,0.38440647698144836,-4.482820878729589,-3.960107611587363,-4.522625388071587,-2.172
5.381387163036592,2.6836239937756208,4.543416000656685,-0.3899019160320911,1.2856189523400996,-4.032258779245094,-3.0518208570757217,-3.2765728645415795,-2.168
5.804752046333393,3.1354984443713168,5.021480428387131,0.3288476720463187,2.2813263629220293,-3.366067393847539,-2.0108806666315093,-1.918658219349238,-2.164
6.20122471939195,3.6629669940247176,5.500635036932154,1.076362589761115,3.357979021120478,-2.4768256488183806,-0.8533842065899844,-0.48612658060976166,-2.16
6.566864624189185,4.27142350933377,5.978933661021271,1.8271884553296323,4.494691920447171,-1.3700282732921643,0.39622035469202643,0.9765096405951184,-2.156
6.8967830671829065,4.960873203067495,6.4530665994527805,2.5554242014228414,5.664115189961136,-0.06418396017861999,1.706619359555078,2.420279565919226,-2.152
7.184796366788746,5.725428789554563,6.918248076335894,3.2361862529930727,6.833992654512899,1.4100667926510748,3.0417889512947687,3.795120762448274,-2.148
7.4234093960576155,6.553295619899492,7.368372258654777,3.8471266191806013,7.969293255204143,3.011728814397806,4.363606231398548,5.053507879301869,-2.144
7.604170094216142,7.4272529858313145,7.796430051476025,4.369871944291441,9.034735524401178,4.691961418558862,5.634650213581724,6.154006300471737,-2.14
7.718369938951733,8.325594424153644,8.195139386237045,4.791244683101803,9.997483036997977,6.397104563825663,6.820921467994204,7.064421610494229,-2.136
7.758004228243324,9.223453344850903,8.55771399267864,5.104144319443648,10.829773727172995,8.071984351195331,7.894242538458502,7.764267808193813,-2.132
7.716854172978927,10.094402937388043,8.87867161896109,5.307993201699274,11.511244931485933,9.66324952296086,8.834143368579674,8.246348906105522,-2.128
7.591519425926968,10.912180500040993,9.154560733292993,5.408681042071258,12.030723773635435,11.122480244901462,9.629077466461382,8.517325580798468,-2.124
7.382229129820929,11.652359809740641,9.38447920940029,5.417981278063245,12.387281536496822,12.408811801633123,10.276869488643982,8.59722400800207,-2.12
7.093292490572116,12.293790959468595,9.570277782162023,5.352462063537837,12.590407840215915,13.490845765923925,10.78436508742955,8.517932407908337,-2.116
6.73310086168875,12.819646267367169,9.716377766887714,5.231962659091417,12.659237012462373,14.34768504809991,11.166321649054579,8.320805392679341,-2.112
6.31365192705292,13.217958223459945,9.829181632166069,5.077747497712215,12.620849279678923,14.969025640169537,11.443637634061888,8.053554828906876,-2.108
5.849638131759566,13.481620047881016,9.916124071479238,4.910496363815231,12.507779399738228,15.354363913320094,11.641083061741952,7.7666656431456635,-2.104
5.35722947876578,13.607934387195382,9.984500911336177,4.748345345752378,12.354991472347463,15.511518589927483,11.784770269503966,7.509642357470417,-2.1
4.852760453733433,13.597901723349796,10.040293055367346,4.605233916854084,12.19668440431014,15.454780031536735,11.89966511872732,7.327439649993749,-2.096
4.351552708457457,13.455480670854588,10.087221289521766,4.4897926334740585,12.063322258936928,15.203032806032112,12.007439292355494,7.257413368678847,-2.092
3.8670393140564268,13.186998290566045,10.126198577678931,4.404902064079124,11.97920983072069,14.778125744098157,12.124882818404457,7.327028176972322,-2.088
3.410232663586589,12.800770818672095,10.155221291990554,4.3479019266019705,11.96078879171461,14.203619648209102,12.262959243028165,7.55240595549415,-2.084
2.98947162748511,12.306888225157675,10.169632187007409,4.3113051035391265,12.015689357154184,13.503901172888002,12.426457771146312,7.937665275131304,-2.08
2.6103552018923577,11.717081683838781,10.162653632308045,4.2838355025598105,12.14250204676262,12.70357908052817,12.614139020218081,8.474952126305059,-2.076
2.2758154071140555,11.044631248479728,10.126125127608601,4.2516590842895745,12.331238115848672,11.827087616370726,12.819294757219806,9.145101955888585,-2.072
1.9863401794276418,10.30432348827102,10.05142332840218,4.199748265372271,12.56446689738305,10.898463552880408,13.0306916989558,9.918935002145922,-2.068
1.740373540353855,9.512480370842404,9.9305415700948,4.113346711971005,12.819093233491317,9.941284138807841,13.233877712327939,10.759191466065115,-2.064
1.5348980416028768,8.687051701648343,9.757265019784214,3.9794799636046747,13.068667093530975,8.978743026063354,13.412787749959232,11.623049096678288,-2.06
1.3661782639572149,7.847731907393033,9.528341305537996,3.788426991571706,13.286045262427399,8.033824912861004,13.551543825449118,12.46508778648932,-2.056
1.2306289178055572,7.01605028536717,9.244539323702057,3.535054670862962,13.446183919810984,7.129531626014699,13.63633114797917,13.240520188190363,-2.052
1.1257530485047118,6.21538215037347,8.911497898932325,3.21991406458514,13.528825702717626,6.289102323031375,13.657233057570284,13.908488034355248,-2.048
1.0510598742739132,5.4708175236439285,8.540266652247816,2.849987960669641,13.52083493980679,5.5361436647339115,13.60988232046679,14.435197012040309,-2.044
1.008821682564002,4.808799713526506,8.147425988585113,2.4389619416212875,13.417923980014507,4.894545081810166,13.496726886935498,14.796616437261953,-2.04
1.0044903262973603,4.256426414579048,7.754660354575786,2.006886761639601,13.22552136108892,4.388026208082414,13.327654181448702,14.980434033918089,-2.036
1.046602065391034,3.840322346298052,7.387683983426895,1.5791382952969366,12.958591645697165,4.039184798148939,13.119729830192185,14.98698017253032,-2.032
1.14607651556382,3.5850660416618663,7.074504608002527,1.1846768846054525,12.64034361785597,3.8680039278946894,12.895914850332995,14.82894343678436,-2.028
1.3149474694537036,3.511273988453034,6.843145865439805,0.8537405987077369,12.299938740159963,3.8899223141749166,12.682808589251863,14.529870454053977,-2.024
1.5647058907327507,3.6335739278253687,6.719089923512778,0.6152339900154926,11.969489066836463,4.113726821539499,12.507671471372767,14.121635225913563,-2.02
1.9045383505205589,3.9587881355824255,6.722798225736497,0.49415443775243695,11.680763268830756,4.5396367606168075,12.395154548823866,13.641231476221165,-2.016
2.339773546487532,4.48466143072665,6.8676851426377254,0.5094068890751231,11.462064693578583,5.157972538024311,12.364250749898444,13.12734046196131,-2.012
2.8707985285435353,5.199398431124084,7.158848404358817,0.6722905114231326,11.335695095427246,5.948725603740361,12.425956337183294,12.61712485733499,-2.008
3.492597227594012,6.082141109459039,7.5927226659380285,0.9858171050152755,11.316290099548292,6.882197814958704,12.58199830637247,12.143602370770077,-2.004
4.194937170264442,7.104359946849787,8.15765989522457,1.4448778473175876,11.410146434476411,7.920700492818802,12.824785790756877,11.733802641767575,-2.0
4.963123650635037,8.231988201550793,8.835295952710439,2.0371491273306876,11.615498725661997,9.021135801505004,13.138536578932053,11.407760059129775,-1.996
5.779174525185397,9.42802507313391,9.602465951939195,2.744543579956815,11.923577320015804,10.138150409012228,13.501360355388812,11.178280961866353,-1.992
6.623243820524625,10.65528159804514,10.433389814728848,3.5449753363652103,12.320202844894276,11.22746894257184,13.887969630334105,11.051356284385468,-1.988
7.475123576502474,11.87894077931037,11.301852779956715,4.414209176361645,12.787642611737132,12.248990706815732,14.272631056811477,11.02705283174509,-1.984
8.315661575165326,13.068639910405558,12.183134886736969,5.3275842091453605,13.306452622345713,13.169267062318434,14.63194709575857,11.100682909831487,-1.98
9.127945083856368,14.199854216356293,13.055492635134984,6.261438026808438,13.85705316815342,13.963067768021244,14.947073879833638,11.264023800489065,-1.976
9.898138469622472,15.254475266429047,13.901077723801126,7.1941202980970615,14.420853193556393,14.613896465034577,15.20506635453067,11.506371091596312,-1.972
10.61594000466776,16.22063066422582,14.706294814492729,8.106581177524232,14.98085753682006,15.113515419203633,15.399214149261912,11.815291123365576,-1.968
11.274713405114813,17.091938982530785,15.461715754017499,8.982617836289569,15.521827956575137,15.460732151124555,15.528450116789447,12.177062349388954,-1.964
11.871400114088402,17.866472197236117,16.161724435279684,9.808910450249165,16.030162501845926,15.659809137108118,15.59609343166094,12.576899538259404,-1.96
12.406303915201496,18.545677680873325,16.804040900794277,10.574956992345829,16.49367274659292,15.71884381211525,15.608266426727056,12.999093706403686,-1.956
12.882785252940144,19.1334218690364,17.38919800923066,11.272955048550964,16.901390155892994,15.648358209785302,15.572294667738024,13.427177067507493,-1.952
13.306853442575807,19.635214487833846,17.91997497776266,11.897626911157163,17.243463130538515,15.460200639836042,15.495304248348585,13.844166986556168,-1.948
13.686623770049966,20.05759387252836,18.400761110095903,12.445963581789139,17.511145343751835,15.166747905184332,15.383120277943558,14.232886181004705,-1.944
14.031608938081675,20.407607595551536,18.836825653404546,12.916865031591326,17.696833017516983,14.780327258279067,15.239484191556802,14.57631744389166,-1.94
14.351834007961589,20.69230735469171,19.23349104419864,13.31066598972423,17.794088516092437,14.31275703972949,15.065562961835756,14.857940856320539,-1.936
14.656805908234837,20.918200101492832,19.595242919505342,13.628560924109058,17.797600353974637,13.774932799180878,14.859720768897304,15.062023498907138,-1.932
14.954434592408866,21.09066195222391,19.92486262681907,13.871984864274877,17.703080280082347,13.176451520029909,14.617551223769349,15.173880737387659,-1.928
15.25007403600356,21.213406784302503,20.222725077026666,14.042059208832926,17.50716920518184,12.525343412336507,14.332205125432207,15.18018594054292,-1.924
15.545889990408241,21.288163525376472,20.48643609297598,14.139244269414414,17.207475030255132,11.828028605945287,13.995066841030699,15.069438515760474,-1.92
15.840735639863237,21.314715183433286,20.71095813982987,14.163323076335947,16.802859190029572,11.089603743231939,13.596808452545705,14.832677172815462,-1.916
16.13062425470534,21.291382710778176,20.88928788341066,14.113771394556307,16.29402095004534,10.314491876395852,13.128784943046963,14.464446476360479,-1.912
16.409758030064246,21.215925493989946,21.013629570063486,13.990473031101233,15.684327969012994,9.507387967636678,12.584648004048887,13.963921884559724,-1.908
16.671942454053845,21.086715923578296,21.0768897554972,13.794647880598317,14.980743318231202,8.674336990214416,11.961976180341786,13.336006989185982,-1.904
16.912119023437725,20.9039623665499,21.07423170725601,13.529794223331708,14.194630738925756,7.823721230223849,11.263667557108157,12.592160993491758,-1.9
17.12770930187573,20.67072641218667,21.00439396539889,13.202420634017242,13.34220227216526,6.966927826971353,10.498838614713591,11.750711616647123,-1.896
17.319486192557232,20.39350906953054,20.87050356655164,12.822361037740793,12.444412400267062,6.118516587552025,9.683027103439851,10.8364648449529,-1.892
17.491767606046913,20.082254909241275,20.68019485435366,12.402528484531738,11.526193771258473,5.295794254266649,8.837599028323012,9.879532494357072,-1.888
17.651862102597356,19.749739389864445,20.444978528680146,11.95807601332021,10.615065438961135,4.517815169100129,7.988399498105232,8.913452798356163,-1.884
17.808874332864743,19.41045476329947,20.178981264450663,11.505090532958553,9.739306849440682,3.8039619173625048,7.163845511311699,7.972853286223021,-1.88
17.97214336109865,19.079243017071075,19.897336950991864,11.059091235877576,8.92601831481435,3.1723690669592934,6.392782527357826,7.091033764350984,-1.876
18.14966179605923,18.769969318823136,19.614579399185367,10.633658275867829,8.199409264829445,2.6384765389814615,5.7024528364075895,6.2978593688714195,-1.872
18.346783812112207,18.49447010766352,19.343340158386695,10.239456405750516,7.5795612957890866,2.2139283369262106,5.116844203297258,5.618243773928974,-1.868
18.56541808190392,18.261896873019616,19.09353754572715,9.883788614581556,7.081765982064696,1.9059227224072655,4.655555635201109,5.071333813847604,-1.864
18.80377104012511,18.07846623872743,18.872108284990304,9.570676270044565,6.7164022539317045,1.7170234947247975,4.333191371558833,4.6703486929088065,-1.86
19.056589001497702,17.94754531902329,18.68321336703307,9.301350895381699,6.489223581999301,1.6453709792953,4.159201512718162,4.42291759744666,-1.856
19.315766582484674,17.8699576460733,18.528766474149023,9.074978017839307,6.401878791731418,1.6851838678389814,4.138036352101225,4.331711211712411,-1.852
19.571160052024524,17.844392251361736,18.409102719962757,8.88942402262655,6.452492472550283,1.827424520955429,4.269474551636314,4.395171886712056,-1.848
19.811465095726387,17.867826542660463,18.32362595389857,8.741913657670153,6.636170492790093,2.060510311521097,4.549014542335265,4.608194827127376,-1.844
20.025066018337547,17.935910919596328,18.27132349429754,8.629486010153641,6.945351754171616,2.370976903757162,4.968259867194062,4.962669343860617,-1.84
20.200812514319946,18.0432929717589,18.251094503521177,8.549219978337078,7.369982021835988,2.744022947668039,5.515260384393321,5.4478347562025045,-1.836
20.328719492323064,18.183880203507744,18.261891466935815,8.498257976155765,7.897535486900418,3.1638932653777565,6.174792272352452,6.05044292160529,-1.832
20.40061313151289,18.351058044319487,18.30272036970159,8.473704572664795,8.51295430832289,3.614097720336733,6.9285841667002686,6.7547605893231975,-1.828
20.410756566015685,18.537893454789117,18.372575957721942,8.472504138610265,9.198607301339873,4.077510327116961,7.755528178602048,7.542486968983113,-1.824
20.356473636956,18.73735743959289,18.470392931365563,8.491396756538773,9.934375455434651,4.536432447934705,8.631943282428495,8.392690569657805,-1.82
20.238754002648992,18.94259144471906,18.595072472167338,8.527017343878741,10.697953993080864,4.9727250144961745,9.531973521406016,9.281877805928497,-1.816
20.062785130113866,19.14722796040392,18.745608505999307,8.57615493962878,11.46542604596182,5.368113063542963,10.428196873414535,10.184295577418656,-1.812
19.838328584789284,19.345755655199554,18.921299393100178,8.636139599645507,12.2121147288861,5.7047330511727266,11.292486198606323,11.072536466259567,-1.808
19.579840671572384,19.53389171761901,19.12199209418601,8.705278036104314,12.913659194066256,5.965924564681123,12.097101512076208,11.918451804284388,-1.804
19.306234369407903,19.708895386459393,19.34827623158538,8.783225863258398,13.547199530720256,6.137182535306643,12.815919116332108,12.694297318064644,-1.8
19.040200998832304,19.86974252927582,19.601539109134215,8.87117957463994,14.092518982802494,6.207124053709329,13.425648240823577,13.3739720496679,-1.796
18.807061173704238,20.017092296781485,19.883816200670758,8.97180202347661,14.53299541387727,6.168314026406042,13.90687633117265,13.934193883617837,-1.792
18.633188867669887,20.153012989754334,20.197419735996675,9.088854994579252,14.856256419988803,6.017832885201473,14.244827381890156,14.355491799808961,-1.788
18.544135103488767,20.28048673331362,20.544388131942206,9.226586770077239,15.05450050962099,5.757532329396483,14.429798020475742,14.622969028484313,-1.784
18.562647729006976,20.40276573028478,20.92585200712162,9.38898922332393,15.1245170293372,5.393984323751913,14.457319417502848,14.726867407012854,-1.78
18.70681949295615,20.52268879842987,21.34143900227489,9.579074333835244,15.067485043802659,4.938167432795736,14.328143413378598,14.663003588806598,-1.776
18.988586749315047,20.642074693829265,21.788831410958174,9.798312024686892,14.888642873142446,4.404950075293654,14.048150341999209,14.43313268406692,-1.772
19.412747558798365,20.76128831352172,22.26355303661967,10.046323903128256,14.596897936383616,3.8124276961093453,13.62822989902636,14.04523295526235,-1.768
19.976581931633323,20.879034592747285,22.759006889625567,10.320855759475188,14.204403641817882,3.181156576568414,13.08411768487262,13.513627557779676,-1.764
20.67005545097665,20.992383238147628,23.266726896541023,10.617975967477628,13.726083121471964,2.533307189772216,12.436107418612995,12.858804182754545,-1.76
21.47649267546937,21.096977343097443,23.776758204593413,10.932388807974245,13.1790451461828,1.8917422012532523,11.70852599558929,12.106787148510794,-1.756
22.373544882190014,21.187344685653166,24.278055733145102,11.25772927312003,12.581829497424472,1.279017857540054,10.928867435833034,11.28796397020498,-1.752
23.334270882766923,21.25722670475111,24.758801847725138,11.586729185389247,11.953447785661803,0.7163219682759694,10.126535406803159,10.435360000267124,-1.748
24.328202680731756,21.29987099801141,25.206593047038638,11.911208058676197,11.312250159758236,0.22239844829621536,9.331236021497363,9.582472657235646,-1.744
25.32235126746132,21.308281665119416,25.608512733665293,12.221919511900735,10.674724807791149,-0.18744870534280306,8.57116496805095,8.760889117211233,-1.74
26.282178128477216,21.275458267056063,25.951160423219726,12.508340849098415,10.054388306499929,-0.5021577958866865,7.871202142643807,7.997976940939951,-1.736
27.172587260673577,21.194660405027594,26.220726996539355,12.758512788811116,9.460928552122041,-0.7154209367027962,7.251337959779065,7.314934215912211,-1.732
27.95898102617147,21.05971492519738,26.403192519090837,12.959024993502355,8.899722936890404,-0.8258563755746116,6.7255173511002635,6.725426173160278,-1.728
28.60838879742772,20.86535285222517,26.484691394481437,13.095216321255625,8.371791020524496,-0.8368532162069944,6.3010210316211825,6.234944964482846,-1.724
29.09064403772159,20.607541713529827,26.452056178394905,13.151630428091872,7.874174840837728,-0.7561466594138897,5.978426553388353,5.840931530258583,-1.72
29.37957286465517,20.28377971676795,26.29353051193239,13.112746560153154,7.400691757586762,-0.5951965192325057,5.752123568075092,5.533613686496749,-1.716
29.45416477695407,19.893338995291977,25.999632451922793,12.963987829884966,6.942980098753415,-0.3684258385907014,5.61131273579945,5.29745501110307,-1.712
29.299700939134237,19.437464048570853,25.56413338922912,12.69297654151386,6.491740265664344,-0.09235583004755216,5.541386717720457,5.113067618286463,-1.708
28.908795371909555,18.919527267794322,24.98507969825922,12.290945965415487,6.038044456286121,0.2153243695967902,5.525552085547471,4.959399769849555,-1.704
28.282264693191813,18.34512011249115,24.265735580916534,11.754145692553701,5.574553988661828,0.5366915527564464,5.546503297853432,4.815964156258642,-1.7
27.429713057551393,17.722044709425493,23.415300005793533,11.085032090697613,5.096478005211434,0.8544529698176528,5.587942247220427,4.6648534517712985,-1.696
26.36972917399451,17.06019056192761,22.449274814946925,10.29304944530728,4.602158191149774,1.1526967073489525,5.635786637328074,4.492330392697245,-1.692
25.129639731728318,16.37132423830693,21.38942530387928,9.394877841635157,4.093256387981014,1.4175378963875498,5.679010450487468,4.289873057679046,-1.688
23.744814821568802,15.66884448265062,20.26333597790792,8.414110422312929,3.5746032488031023,1.6377050235929898,5.710141756648476,4.0546492728541175,-1.684
22.257546435148356,14.967531183544953,19.103587866079742,7.380385362244095,3.0537945856949076,1.8050910512331886,5.725456750775072,3.7894423222999487,-1.68
20.715526620359828,14.283262357561664,17.946577997256114,6.328031950878181,2.540605780799532,1.9152376589660192,5.724873344792804,3.502061717985786,-1.676
19.169963151230615,13.632635378051361,16.83100114177811,5.294315029086782,2.046273146480196,1.9676743536489123,5.711524502219504,3.204289067010656,-1.672
17.673395432535976,13.032431615821565,15.796035740329904,4.317386961153076,1.5826882159099291,1.9660255813625531,5.691019590780154,2.9104539401168514,-1.668
16.277297459950795,12.498895105286003,14.8793085299089,3.4340743346506546,1.161558684179063,1.9178224417837944,5.670465806638266,2.6357928091389633,-1.664
15.029570983508538,12.046835572084209,14.11474339521983,2.677636312954351,0.793592580608232,1.8339939643462366,5.657375874566134,2.3947815770823278,-1.66
13.972053785115747,11.688609341855404,13.53043359066638,2.0756450738051067,0.48776023517982914,1.7280586938436369,5.658605482711485,2.199631207322371,-1.656
13.138204788104673,11.433078605025436,13.146715463592422,1.6481611845346222,0.2506896709207673,1.6150880763765667,5.679451258322263,2.059105366529373,-1.652
12.551161715234514,11.28468637672519,12.974646652842761,1.4063890900048,0.08625064565281093,1.5105556084516127,5.723011870243733,1.9777730884663622,-1.648
12.222366318458256,11.242788815179239,13.01507364053273,1.3519714463114445,-0.004634038312467226,1.4291984882837914,5.789872665132413,1.9557520332066494,-1.644
12.150904833643686,11.301351191299112,13.258406260272858,1.4770076264598408,-0.023947204584294113,1.3839937239423485,5.878119536170845,1.988931621666688,-1.64
12.323635859292924,11.449055713587377,13.68512527250816,1.764783493359527,0.0236574604995603,1.385305532092008,5.983633808104114,2.069601728580831,-1.636
12.716103255299782,11.669814367215494,14.266968091031586,2.191112027932233,0.13122453644592902,1.4402246042568283,6.100584751182529,2.187367877822214,-1.632
13.29417282855967,11.943642149829497,14.968685943546777,2.726131955405794,0.2899440337748942,1.552109912876625,6.222030788189356,2.3302193281225394,-1.628
14.016281600791444,12.247820355991713,15.75023605896048,3.3363921295511645,0.48963724693817845,1.720351381952032,6.340558500623905,2.4856284326080367,-1.624
14.836134209457683,12.558253656403977,16.56924629402912,3.9870440050396283,0.7192528537819953,1.9403730742937944,6.448908298899514,2.6415798569530766,-1.62
15.705631266726257,12.850903959148287,17.383566966401496,4.643967571841241,0.9673464993341199,2.2038846149204248,6.540545001873589,2.7874466129133273,-1.616
16.577802053034215,13.103193573159068,18.15373087682636,5.275686299754341,1.222531238923045,2.499383184145945,6.610146077229201,2.914659682623541,-1.612
17.409553574497025,13.29531759797327,18.845189754428283,5.854990756632812,1.4739238508591672,2.812919762171833,6.654013223357573,3.017168038388988,-1.608
18.16410495423735,13.411452086773718,19.430249801505944,6.360252575662509,1.7116425308845757,3.129142067205241,6.670441309736754,3.0917301029613835,-1.604
18.81299946747411,13.440838367246261,19.889640802061727,6.776423364697887,1.9273911814647189,3.4325748561283373,6.6600660708106165,3.138078241262014,-1.6
19.337567360748725,13.378658202765475,20.2136144103141,7.095674756367348,2.1150910707530812,3.7090013470681873,6.62615420975895,3.1589497418749684,-1.596
19.729691297261716,13.22653856746048,20.402422144215635,7.317592341606186,2.271436982751931,3.9467196404313456,6.574730327013416,3.1599159654814777,-1.592
19.991751283626968,12.9925037892252,20.46602889116685,7.448838160282447,2.396218255779295,4.1374244516590375,6.514400830863886,3.148914612389026,-1.588
20.135714743853185,12.69026226720376,20.423000308004852,7.5022608449997055,2.492285117507489,4.276536226218543,6.455770077023233,3.1354311956654195,-1.584
20.181463396364236,12.337856561168877,20.298641119525797,7.495534338011412,2.565142310932699,4.362946461000366,6.4104468844124,3.1293782040236557,-1.58
20.15455725855107,11.955854926178134,20.122596535349288,7.449493938007683,2.622261498302948,4.398305988184646,6.389764164067623,3.139834761710767,-1.576
20.083685455845938,11.565352876583088,19.92620263594683,7.386370020815848,2.6722663119409216,4.386083992533546,6.403420952527089,3.1738762032163184,-1.572
19.998045619374757,11.186063918254934,19.73986848078598,7.328093085199546,2.7241441881941544,4.330643416438721,6.458279223823031,3.235717103508428,-1.568
19.924863820389035,10.834735624571032,19.590722861355054,7.294792034962983,2.7866032000654295,4.23653506743242,6.557524109843786,3.3263328881347967,-1.564
19.88724291555124,10.52406402102957,19.50069913245447,7.30356291317403,2.8676480290236537,4.108141184371746,6.700345014335367,3.4436442450823996,-1.56
19.90250326801532,10.262203453983094,19.485173667298763,7.367552254790988,2.974399734757945,3.9497118744713853,6.882212648107099,3.5832542818951456,-1.556
19.981133069724503,10.052873897829546,19.55220912496749,7.495366172952258,3.1131223581545386,3.7657367981973375,7.095709923965184,3.7396217304088726,-1.552
20.126391098877612,9.895963690184573,19.70238415167963,7.690783256750528,3.2893591798146122,3.5614999070244493,7.3317524995801655,3.9074583013575923,-1.548
20.334526031983422,9.788447303214237,19.929135591124613,7.952732037833796,3.5080546955603564,3.343615118267639,7.580959177978263,4.083096652639028,-1.544
20.595520227059083,9.72541509172984,20.219514682591893,8.275500620584122,3.773563863968728,3.120361121385521,7.83493482951036,4.26560718417839,-1.54
20.894237927187152,9.701044375921835,20.5552606519273,8.64916285626124,4.089512013156608,2.9017118158208626,8.087294087395502,4.457520686380131,-1.536
21.211841870372105,9.709397036192563,20.91410004405659,9.06020517842648,4.458525997900589,2.699047878747568,8.334333894826859,4.665089321095333,-1.532
21.527319265806373,9.74496888992346,21.27116508140822,9.492304207286882,4.881873300962229,2.5245833936477893,8.575311264740956,4.898055908831306,-1.528
21.818935283002503,9.802930646261913,21.600395224251812,9.927154724396914,5.359022138485286,2.390540170938867,8.812293899928004,5.168907967018902,-1.524
22.065452170731678,9.879025838310227,21.875787734250288,10.345233522997765,5.8871214053533425,2.3081017975236016,9.049571073178175,5.491617077145288,-1.52
22.24704609141442,9.969168156927559,22.072433841669948,10.726446880676198,6.460444627829075,2.286236461678025,9.292691945291507,5.879952761989825,-1.516
22.345981248697083,10.068886201792537,22.167385882193763,11.050714394115902,7.069928554272644,2.3305766722308285,9.547320753993404,6.34558994593641,-1.512
22.347170909185326,10.172819254976961,22.1404613354078,11.298601452371885,7.702983139649891,2.4425995019199873,9.818171908335104,6.896308789613585,-1.508
22.238720595819604,10.274426262922812,21.975053754762683,11.452077211887739,8.343701950987874,2.6193009784598065,10.10824613455834,7.5345533972,-1.504
22.012453396809757,10.3659676722232,21.658928173567674,11.495381969627038,8.973492352799168,2.8534298048765026,10.418463297646026,8.256505889090482,-1.5
21.664340136106354,10.43872940491509,21.18490710486674,11.41591079681808,9.572045835109348,3.134217181079189,10.747664416870009,9.05172441864885,-1.496
21.194739282469637,10.483419496669185,20.55134239548,11.204997457445403,10.118520683672728,3.4484642602739575,11.092887992949265,9.90333101608064,-1.492
20.60838155516882,10.490668609729159,19.762302879550475,10.85850212255177,10.592802525772841,3.781826438344015,11.449809180869602,10.788707157136134,-1.488
19.914083759709275,10.451576802185404,18.827455305141008,10.37714093729341,10.976719157444487,4.120139404131203,11.81323719247916,11.680634825757878,-1.484
19.124232071061055,10.358261650063945,17.76166364354715,9.766536612949409,11.255110103733594,4.450653302804395,12.177586915328654,12.548802514357892,-1.48
18.254132139692317,10.204385346273178,16.58438251900153,9.037021475593118,11.416697321912949,4.763080748979673,12.537283124018508,13.361592302868097,-1.476
17.321361609686477,9.985666063399126,15.318961652615497,8.20327449360611,11.454760099890201,5.050414362006016,12.887111730829428,14.088074246048679,-1.472
16.34524981295359,9.700388794152865,13.99198036542234,7.283889581710536,11.36764984794121,5.309507267368018,13.222567695017514,14.700129832721645,-1.468
15.346543790302729,9.349910130092116,12.63268194860837,6.300939197919137,11.159167376635995,5.5414195713553625,13.54023701074028,15.174586538715552,-1.464
14.3472282613407,8.939111410527879,11.272498504581518,5.279535405490801,10.838779032527494,5.751518864121159,13.838199018551077,15.495183981693598,-1.46
13.37038857660021,8.47671557484462,9.944582816586948,4.247333570146926,10.421598342664307,5.949298167036325,14.11637456333562,15.654142547118095,-1.456
12.439965568979087,7.975358772976167,8.683220666172048,3.233892517718309,9.928030382956692,6.147855882689795,14.37670140040742,15.653094388665712,-1.452
11.580256363902038,7.451305371121723,7.5229943280518174,2.269803270298504,9.382978244290546,6.3629815378529795,14.623006031685172,15.503173572840893,-1.448
10.815058342866038,6.92371848803548,6.497602385661271,1.3855221895973546,8.814546784473482,6.61181752930139,14.860470003985542,15.22414457437586,-1.444
10.16642369931494,6.413451003959613,5.638305084720567,0.6098908886819787,8.252247114581726,6.911126333709348,15.094663367944243,14.842572474758397,-1.44
9.65308339907143,5.941405279517506,4.972053264393974,-0.03160396204939975,7.724802207170828,7.275280475510016,15.330228525296574,14.389193928305446,-1.436
9.288704687937233,5.5266140620193145,4.519463622084482,-0.5186877060535426,7.257764027527437,7.714187185031522,15.569411658332328,13.895804145176225,-1.432
9.080241675707304,5.184291493527747,4.292898291407537,-0.8380425764568553,6.8712420149325055,8.231426795734327,15.810715444420268,13.392083792226153,-1.428
9.026684032785116,4.9241517422202605,4.294954722990989,-0.9846660866231316,6.578072799064351,8.822894558044856,16.04795842890036,12.902812152182218,-1.424
9.11847446276068,4.749267375929584,4.517646609212803,-0.962589299101519,6.382712286393117,9.476181720564101,16.269967419361514,12.445840353761028,-1.42
9.337756978056452,4.655647094032965,4.94246236173012,-0.7847848794640053,6.28101686999006,10.17082847942835,16.461016392927114,12.031054980208811,-1.416
9.65947386979235,4.632586555063861,5.541353805308139,-0.47221619916334756,6.260936880535718,10.879455471908992,16.601994374700876,11.66039302917478,-1.412
10.053192861772715,4.663722225796869,6.278567921405001,-0.05211065179088692,6.304007964270166,11.569654576497644,16.67216746834429,11.328813895953061,-1.408
10.485441322452374,4.728617660933855,7.113113701491892,0.4443375679552304,6.38741549638318,12.206409437992882,16.65130713919679,11.026008547506587,-1.404
10.922260400450622,4.804647455287311,8.00157450073868,0.9845397287095379,6.486337481980099,12.754740811806503,16.52189412155184,10.73853645452433,-1.4
11.331676358485215,4.868927854749476,8.900950680113745,1.53703201222707,6.576256930886711,13.18225424089003,16.27109387162929,10.452044165094208,-1.396
11.685827796570393,4.900080205409758,9.771255101017587,2.073656238953113,6.634982416359454,13.461318604592423,15.892251660980989,10.153255746490816,-1.392
11.962585334819547,4.879698597620289,10.577678198842921,2.5712262036168365,6.6442183848131595,13.57071551627225,15.385767914681523,9.831534892462903,-1.388
12.146628678264413,4.793501689111919,11.29226125862023,3.012645940737661,6.590657030540465,13.49674047692024,14.759354961862417,9.479965484821191,-1.384
12.230049318257254,4.632232101256218,11.89511283603578,3.3875568458026937,6.4666694808252565,13.233851392805969,14.027789357451645,9.096016496428078,-1.38
12.212573533342901,4.392377620339792,12.375225069452018,3.6926163908989587,6.27070600977919,12.784994688568766,13.212308638521613,8.68189485768057,-1.376
12.101447511545736,4.0767233055085885,12.730893470896126,3.9314539745325376,6.0074677035522726,12.161686285300929,12.339753764337363,8.244648137038997,-1.372
11.91094542021358,3.6946505067750977,12.969667699956682,4.114266219946881,5.687830471871372,11.383830703197924,11.441476654072753,7.796008321425487,-1.368
11.661413862552578,3.262038350288128,13.107722573703251,4.256968664523107,5.32844290719305,10.479186836181785,10.551976924765395,7.351922088141642,-1.364
11.377784302290273,2.8006277397965373,13.168566310246442,4.379841333722014,4.950912015461271,9.48236741884884,9.707236464433013,6.93171610267845,-1.36
11.087563720182963,2.3367729978977962,13.181087621340346,4.505681656495721,4.580532704701451,8.433292315483358,8.942778356046851,6.556892098660914,-1.356
10.818425463190376,1.89960768565839,13.177056453934213,4.657580659407028,4.24458836829236,7.37508894639238,8.29155364069057,6.249611468265346,-1.352
10.595633949402476,1.5187635852514116,13.188304727967955,4.856537500455316,3.9703308858648017,6.35153143112292,7.781822402673603,6.030989394262403,-1.348
10.439619118173198,1.221883981089011,13.243897266304847,5.11919784642202,3.7828239030301587,5.404218538859718,7.435233181170776,5.919365090132258,-1.344
10.364041026170074,1.0322386558728986,13.367633552743554,5.456018907445916,3.7028843917055747,4.5697820320699805,7.265313532890753,5.9287410656459665,-1.34
10.374630374142367,0.9667515768039934,13.576178663393764,5.870110701363407,3.7453616380216106,3.8774544620809857,7.27655429936957,6.067576004194553,-1.336
10.468964313263145,1.0346876499227893,13.87801474183278,6.356889864706517,3.917944786576218,3.3472901331955627,7.4641991690665535,6.3380675761224605,-1.332
10.637179158533367,1.2371363489375593,14.273270574741948,6.9045495656658655,4.2206100361046985,2.9892384299472416,7.8147590712795605,6.735988952351246,-1.328
10.863479691511401,1.5673110552004346,14.75436683639168,7.495238620775359,4.64573265258447,2.803144297535567,8.307182046438001,7.2510663040730305,-1.324
11.128209151100599,2.011579575954265,15.307330909141685,8.10677515573303,5.178815355549445,2.7796253496947965,8.91453951000319,7.867818583208673,-1.32
11.410204956203978,2.551068991910382,15.913591242136334,8.71469422932494,5.799733994808648,2.9016727795177313,9.606049407760969,8.56673776615657,-1.316
11.689171762003433,3.163646293660534,16.552043947329842,9.294428179370918,6.484371682797738,3.1467543234195077,10.349246101525024,9.325672155493518,-1.312
11.947830694942592,3.8260506972672133,17.20117404081793,9.823420527854298,7.20648823481137,3.489157275937832,11.112113510204894,10.121277188579908,-1.308
12.173634601495003,4.515936107432852,17.841005327273606,10.282970452375721,7.9396432996368125,3.902294048656998,11.865008898803866,10.93040336836762,-1.304
12.359878139161626,5.213584571643823,18.454663211398,10.659609879942657,8.658970190759895,4.360707916496576,12.582218029824434,11.731294813758938,-1.3
12.506093631259198,5.9030925400790935,19.029384347242374,10.945853479103096,9.342606224044992,4.841569580866458,13.24300895140272,12.504483407385111,-1.296
12.617716295789537,6.572918194859756,19.556900017144905,11.140245823338098,9.97264047543041,5.325546632833683,13.832107339524136,13.23330024118984,-1.292
12.705110686289819,7.2157931614335435,20.033234589846913,11.246745489950575,10.535533728489638,5.797045681828865,14.33960174348756,13.903993276270391,-1.288
12.782136273649089,7.828106678003312,20.45805429600503,11.273592203825569,11.022062421494548,6.243939499087584,14.76037358736297,14.505512625158339,-1.284
12.864463456267426,8.408931589217136,20.833742269581222,11.23186253871763,11.426901452836265,6.656965093443218,15.093200567914767,15.029070373142176,-1.28
12.96783764122758,8.958879519826706,21.164367539707143,11.13392792006812,11.747983236606945,7.029004145472467,15.339699137971566,15.467597277672535,-1.276
13.106454811881648,9.478966367365029,21.454684881918503,10.992004631457272,11.985768448619883,7.354445514544583,15.503269478035502,15.815220591963538,-1.272
13.291573541661139,9.969647977551642,21.70926776356071,10.81694448178857,12.142548746109535,7.62878831534812,15.58819358711489,16.066880913008184,-1.268
13.53045290534451,10.430151019070209,21.931846675992105,10.61736776656219,12.22187731173474,7.848577749780427,15.599009670991563,16.218184300613782,-1.264
13.825677349317921,10.858178062566761,22.124902604652007,10.399196273225067,12.228190550530337,8.011681781613367,15.540236148776362,16.26554196667725,-1.26
14.17489847989697,11.250004137465286,22.28953821278302,10.165597980549041,12.166636775835501,8.117819544206531,15.416440456870452,16.20657926503525,-1.256
14.570974448711247,11.60090087406251,22.42560130911189,9.917294528728158,12.043061617649439,8.169153030137625,15.232549878411856,16.040706458064832,-1.252
15.002430637346912,11.905746343572307,22.531976635545753,9.653118329916266,11.864038580764218,8.170689862693447,14.994219410784103,15.769670091807818,-1.248
15.454139061424542,12.159648927006678,22.606932062840222,9.37067571051622,11.636820041003737,8.130268641532556,14.708054400153662,15.397894175179015,-1.244
15.90814182329963,12.358456303817842,22.64843196352473,9.067001403271435,11.36913951963041,8.05802450153558,14.381554643661495,14.932494620898513,-1.24
16.34460084582747,12.499108287940185,22.654396331619296,8.739158671322608,11.0688890648198,7.965408309046821,14.022765783107607,14.382970126573635,-1.236
16.742889445251418,12.57986729426073,22.62294080377496,8.384798777916933,10.743766641442882,7.86397173836144,13.639725220251714,13.760667540461263,-1.232
17.08282250626445,12.60048605390492,22.55264667652841,8.002708853915056,10.401001615748763,7.7641771474564605,13.239832966226793,13.07814849526156,-1.228
17.34597024465583,12.56235668188631,22.442888034566508,7.593354517741533,10.047233426662483,7.674452580921101,12.82927572691908,12.348564291692016,-1.224
17.516959652678313,12.468660951018851,22.29421618829032,7.15939529630473,9.68857699288643,7.600635578233083,12.412622259134265,11.585125205152586,-1.22
17.584664076933986,12.324529718936365,22.10878919541647,6.706139833628702,9.330880647636246,7.545876058857306,11.992703434232677,10.800750099579245,-1.216
17.54320359722783,12.137213140600277,21.890826932478078,6.241906921149361,8.980158144588584,7.5110042172928635,11.570867443081298,10.007975011473372,-1.212
17.392697302676567,11.91624443406824,21.64705076919362,5.778247841515093,8.643136512557136,7.49529811509416,11.147631771456318,9.219147584233394,-1.208
17.139706597457888,11.673542450088966,21.387028699600755,5.329961383295688,8.327807618313344,7.497503864998302,10.723646776810138,8.446840387297287,-1.204
16.797293510189395,11.423354678171155,21.123308918973855,4.9148106964906635,8.043824984423633,7.516890302357804,10.300781222280605,7.70432392748218,-1.2
16.38461248802704,11.181918621573608,20.871212436679365,4.552852855442126,7.802575324260557,7.554092433164673,9.883081899726859,7.005898018961902,-1.196
15.925979122198349,10.966739773518583,20.648185888314714,4.265331309528168,7.616792267550524,7.611533395309558,9.477368487493667,6.366906619669816,-1.192
15.449415729171001,10.795449692176696,20.472684885641698,4.073152230127263,7.499659811957851,7.693302524078456,9.093288096200427,5.80333396384505,-1.188
14.984747093490551,10.68429692369244,20.36264576330703,3.9950485591870795,7.463450805147253,7.8044777794347615,8.742744316531027,5.330963220155442,-1.184
14.561397780875417,10.64641563054576,20.333692420024626,4.045615061521614,7.5178432201388965,7.94999209341673,8.438720579076461,4.964160173615478,-1.18
14.20611233246774,10.690093347038552,20.39729924621735,4.2334596212164755,7.668141581197717,8.133239750557507,8.193632380795547,4.7144250313221425,-1.176
13.940855359002313,10.817294274300128,20.55916511100277,4.559735523439802,7.913679532206942,8.354676356328744,8.0174444484965,4.588919875501659,-1.172
13.78112767246175,11.022669042635563,20.81802810661552,5.017278237120289,8.24666958024847,8.61066397528937,7.915843733022031,4.589200960814293,-1.168
13.734863982314291,11.293206598489615,21.16507709340668,5.590480853976894,8.651700030383155,8.892759164519703,7.888752983091682,4.710356831372476,-1.164
13.801986601514422,11.608588717885326,21.584024504066704,6.255937930372854,9.105981956273949,9.187561822656981,7.929414668965017,4.94069261119695,-1.16
13.974602995285073,11.942214671493932,22.051818968597033,6.983792451692164,9.580344831630205,9.477155248379782,8.024189824074222,5.262027101544145,-1.156
14.237762743443682,12.262781606399734,22.539905626242835,7.739642005591845,10.040881555757682,9.74008059611437,8.153111515639397,5.6505884087165414,-1.152
14.570635453551038,12.536243326544824,23.01589082478548,8.48680006228209,10.451062703148704,9.952714338746437,8.291120614010934,6.0784105142297635,-1.148
14.947943720099392,12.72793875301699,23.44544103070224,9.18867392392377,10.774090227590479,10.090873439541813,8.409817886057668,6.515067508059003,-1.144
15.341496297137518,12.804691990080848,23.794248065054106,9.811024228770206,10.975255990672999,10.131471583294829,8.47951905300536,6.929560551545308,-1.14
15.721716585632024,12.736736134894237,24.029923959593646,10.323917540938238,11.024111457909887,10.054086835764958,8.471407777068109,7.292202097940321,-1.136
16.059123591814416,12.499377551558048,24.123733150118532,10.703257985132938,10.896320276893297,9.842352890459962,8.359625631248317,7.576396209911827,-1.132
16.32575534798065,12.074359564199415,24.052100076025596,10.931851616638548,10.575120277503844,9.485121171543087,8.123180205280871,7.760250844991965,-1.128
16.49651071691377,11.450889038862424,23.797833859209987,10.999994861054471,10.052347325148157,8.977346997874356,7.747569645576878,7.827958215536009,-1.124
16.55034760119197,10.626276151900168,23.35100525807146,10.905595081052738,9.328982819821851,8.320647034469616,7.2260241262953535,7.770860812156244,-1.12
16.471249892810167,9.60613576458822,22.709418233736265,10.653848825234899,8.415199065043648,7.523480024433421,6.560272779350339,7.5881106904254585,-1.116
16.248875309446092,8.404115106462548,21.87864119359459,10.256523619325911,7.329892746692272,6.600919188043112,5.7607618842233705,7.286836296009723,-1.112
15.878810873921413,7.041134748982866,20.87158570897462,9.730897539385113,6.099706548815162,5.573999350141736,4.846270215909885,6.881751972449118,-1.108
15.362383169698553,5.544152012693372,19.70763632777774,9.098404391636123,4.757546685053965,4.468634761751221,3.8428951264417925,6.39418371039148,-1.104
14.706004277694934,3.9444880052957902,18.411355696259648,8.38302948455479,3.3406284748998027,3.314133381516736,2.7824293378091696,5.85054181334683,-1.1
13.920095312602262,2.2758146128461227,17.010830470770234,7.609523045214333,1.8881367778030231,2.141395837567638,1.700216813581771,5.280338215517368,-1.096
13.017715472271085,0.571973231010185,15.535786097364538,6.801548376120591,0.4386675836853957,0.9809730938075771,0.63266096444395,4.713914051742862,-1.092
12.013103577585971,-1.1351365815331516,14.01565811574214,5.979935943709249,-0.972308277266821,-0.1387742561183289,-0.3853600989565198,4.180100330579041,-1.088
10.920364882205703,-2.817346370692011,12.477826997303499,5.161234324124926,-2.314690949229126,-1.1931706775942998,-1.322878434964986,3.704056704697683,-1.084
9.752486431406881,-4.451494057861015,10.946184311779314,4.356712439991906,-3.565481790217282,-2.162215424302062,-2.1547671134191937,3.3054986486036606,-1.08
8.520764288237777,-6.020104699738736,9.440120475855693,3.5718897035062867,-4.7098678321352505,-3.031045990498536,-2.863067785179899,2.9974418268313316,-1.076
7.2346299522616455,-7.511505328486042,7.973953044524693,2.8065916684635335,-5.741628076020897,-3.789975251702064,-3.4376824824909615,2.785505781180186,-1.072
5.901816957198872,-8.919461762851059,6.556785134727794,2.05548432298316,-6.662886948645157,-4.434249297312018,-3.876467679153844,2.6677699578709264,-1.068
4.528819391080253,-10.242423487766057,5.192797050321771,1.3090371937092042,-7.483250029421066,-4.963635075306879,-4.184775828873368,2.635173441034512,-1.064
3.1216284827356278,-11.482430513524433,3.8819955961561803,0.5548779460994577,-8.21835079096906,-5.381867152895448,-4.374469912713003,2.6724630446951227,-1.06
1.6867439721654716,-12.643720629462734,2.621431480195616,-0.22050856502502825,-8.88785873120525,-5.695924992597189,-4.4624444469745885,2.7596760200184676,-1.056
0.2324189988478027,-13.731101821368231,1.4068293371520806,-1.0298326230650208,-9.51306633617286,-5.9151121027954385,-4.468742578193897,2.87407691565972,-1.052
-1.2299769726735663,-14.748212806463723,0.2344785071590052,-1.882970175249672,-10.114263271736947,-6.049956382086633,-4.414438350849739,2.992378289824148,-1.048
-2.6846715318221657,-15.695859892631274,-0.8968580070077374,-2.7850802572990343,-10.708184797987569,-6.111017422662155,-4.3195191694984185,3.0929994508170493,-1.044
-4.110530180015295,-16.570670811146602,-1.9843171511317585,-3.735129807810116,-11.305862599123381,-6.107750820493977,-4.201035740356739,3.1580787900553116,-1.04
-5.480694997604739,-17.36432855837475,-3.019903449987166,-4.725081030590307,-11.911198237202322,-6.047626996379119,-4.071778600873019,3.174962284584997,-1.036
-6.763059454365135,-18.063618705315065,-3.990313168898547,-5.7399478489554125,-12.520513338345141,-5.935708684521481,-3.939685142311067,3.1369484196897917,-1.032
-7.92171672127136,-18.651419618243033,-4.877756645832422,-6.758822201750644,-13.123196692672197,-5.774827698146539,-3.8080697703642645,3.0431825558841785,-1.028
-8.919341494585634,-19.108583354721617,-5.66173019544453,-7.756801900173777,-13.703371017164676,-5.566360491397813,-3.6766050425375294,2.897756305233547,-1.024
-9.720247349281745,-19.416439065686944,-6.321473150273944,-8.707554581291182,-14.242285742148587,-5.311425463157686,-3.5428014048261414,2.70824362332234,-1.02
-10.293685484594892,-19.559487284206135,-6.838686389268986,-9.586105568633002,-14.720988663122691,-5.012193141608251,-3.403610864973965,2.484025285984762,-1.016
-10.616891009951221,-19.527815349677304,-7.200052042766851,-10.371407531994274,-15.122803855797011,-4.672975197133207,-3.2567767872799926,2.2347579745901482,-1.012
-10.677448298637476,-19.318852864435613,-7.39917644488885,-11.048334263652453,-15.435242278013055,-4.300836704050999,-3.1016657162018824,1.9692386832256252,-1.008
-10.474687959619125,-18.938242637935808,-7.437720311710233,-11.608881144109027,-15.651134527282105,-3.9056062282425335,-2.939486464850944,1.6947663297445335,-1.004
-10.019990444771327,-18.399766901687066,-7.325624304150429,-12.052495823373864,-15.768940143840583,-3.4992904339601405,-2.7729579184679505,1.4169792352129384,-1.0
-9.336025666551645,-17.724412259722698,-7.080461759879132,-12.385583136415825,-15.79232243191383,-3.095011695532869,-2.6055924437402833,1.1400750108262994,-0.996
-8.455089184277167,-16.938770686166713,-6.726052217740026,-12.620325222745507,-15.729171299736239,-2.7056714915897473,-2.4408087324309147,0.8672886301306679,-0.992
-7.416789040390333,-16.073048369180306,-6.290547897495767,-12.773026312657707,-15.590304799819036,-2.3425903298934836,-2.281083065292954,0.6014999830650041,-0.988
-6.265382841755076,-15.158979239132025,-5.804254324561102,-12.862226802185129,-15.388084625382477,-2.0143765143925694,-2.1273067786927626,0.3458519295444056,-0.984
-5.04706367628616,-14.227914046212975,-5.297460467625388,-12.906834905791117,-15.135152447264035,-1.7262287880300173,-1.9784607154851024,0.10427062948751598,-0.98
-3.8074528946999555,-13.309285141385848,-4.798527605392701,-12.924497043610684,-14.84344277172035,-1.4797878860384601,-1.8316566259951177,-0.11820976923178605,-0.976
-2.5894811850885846,-12.429541045332744,-4.3324137900320006,-12.930364410151238,-14.523555620328848,-1.2735320534308523,-1.6825282787561289,-0.31538713969692367,-0.972
-1.431738372060539,-11.611525129677187,-3.9197023859487095,-12.936319532241658,-14.184486512560364,-1.1035889373257082,-1.5258840442919563,-0.4801064592479136,-0.968
-0.36727981631725726,-10.87417974328689,-3.576096055833524,-12.950636330651847,-13.833639069408791,-0.9647528322581773,-1.3564806085871446,-0.6046953947724685,-0.964
0.577172313508516,-10.23242721990604,-3.3122730944449943,-12.97799586060671,-13.477014399713825,-0.8514827525766286,-1.1697681047666855,-0.681530822531009,-0.96
1.381695960127419,-9.69711512158501,-3.133994546261209,-13.019773766262414,-13.119483374523805,-0.7587097795922515,-0.9624917153191497,-0.7036533241059217,-0.956
2.0333441089851005,-9.274984602304846,-3.0423810388995776,-13.07453380333711,-12.765083640462398,-0.6823719874774452,-0.7330952622205675,-0.6653789336655862,-0.952
2.5260471276081686,-8.968688213498268,-3.0343195600964634,-13.13867998009176,-12.417321494091299,-0.6196878472819574,-0.4819357975419898,-0.5628922462779542,-0.948
2.8602561836028264,-8.776919573794785,-3.1029911001985795,-13.207225814162765,-12.079486645233315,-0.569247825977111,-0.2113668992481088,-0.3948271068342333,-0.944
3.0423464660333392,-8.694716550118653,-3.2385229288063995,-13.274635365033186,-11.755000380151012,-0.531033813755821,0.07422992876398737,-0.1628438599658466,-0.94
3.0838102666363367,-8.713968632503114,-3.4287627644039596,-13.335680959307549,-11.447809149791587,-0.5064610439973967,0.3684022717062838,0.12781055761682047,-0.9359999999999999
3.0002922722308036,-8.824104459612848,-3.660141424001182,-13.386241583927657,-11.162797659515517,-0.4984787545589096,0.6625678990655661,0.46782715463587365,-0.9319999999999999
2.8105501676958533,-9.012873508513431,-3.9185432658054307,-13.42393685516013,-10.9061371959162,-0.5116853551120959,0.9460168788846506,0.8435781959985214,-0.9279999999999999
2.5354394914606777,-9.267101869829899,-4.190073102989627,-13.448482798434743,-10.685445969842808,-0.5523570767736639,1.206100539265302,1.2372405152977937,-0.9239999999999999
2.197004246144443,-9.573318602850172,-4.461622631834333,-13.461693123989903,-10.509654107969249,-0.628290627077233,1.4287079013854385,1.6274070890368808,-0.9199999999999999
1.8177173319929558,-9.918197779772166,-4.721187560973094,-13.467119895940188,-10.388526530738327,-0.7484082290153007,1.5990503733359436,1.9901860095756536,-0.9159999999999999
1.4198829748998323,-10.288805647717641,-4.957935642570881,-13.469393455673725,-10.331863458718084,-0.9221284577636877,1.7026973424804668,2.300685037706634,-0.9119999999999999
1.0251944111836755,-10.672667969206195,-5.162059780366702,-13.473362790096957,-10.348448899846636,-1.1585463589274787,1.7267584336004695,2.5347231821488565,-0.9079999999999999
0.6544257390387322,-11.057689585850815,-5.32447548619197,-13.483158962782943,-10.444857981866969,-1.4654963965436067,1.6610798288015198,2.6705856399214767,-0.9039999999999999
0.32721979634731024,-11.431978498756006,-5.43644612941366,-13.501314986989254,-10.624272485322939,-1.8486012127806306,1.499298048695791,2.6906247516477393,-0.8999999999999999
0.06191567965326783,-11.78364894029363,-5.489238173016993,-13.528072978984904,-10.885479898426345,-2.310431369913158,1.2395924440127324,2.582517277966198,-0.8959999999999999
-0.12464900244357047,-12.100688146216427,-5.4739065648505925,-13.560981572695463,-11.222221722164116,-2.849896072677569,0.885026453396323,2.3400434510546155,-0.8919999999999999
-0.21741027726251794,-12.370955680590047,-5.381275500927547,-13.594827602113073,-11.623000153903954,-3.4619397881832352,0.4434642797675359,1.9633559358723023,-0.8879999999999999
-0.20343058187623608,-12.58234274106323,-5.202118780421529,-13.621870138170307,-12.071364874674702,-4.137547308095735,-0.07284876208486857,1.4588182615236782,-0.8839999999999999
-0.07228988249083734,-12.723072845618528,-4.927486308969321,-13.63228557331511,-12.546620589132756,-4.863995149946335,-0.6478955974108569,0.8385632844842359,-0.8799999999999999
0.18354502827989005,-12.782104938068658,-4.549104721882227,-13.61472353195653,-13.02485686393103,-5.625265984464955,-1.262548357106411,0.11992397911099317,-0.8759999999999999
0.568402947416935,-12.749618127006672,-4.059812247786613,-13.556919147102736,-13.480212656212862,-6.402572578414536,-1.8952079646114424,-0.6751727186267011,-0.8719999999999999
1.0831195005462728,-12.617590246877171,-3.4540403607136287,-13.446367781596058,-13.886317817935803,-7.174986629315826,-2.522429016560478,-1.5208414162948323,-0.8679999999999999
1.7247247870484745,-12.380491502686224,-2.728381634748551,-13.271092525553811,-14.217861437867578,-7.920195140683055,-3.1195854414988915,-2.387950899387423,-0.8639999999999999
2.486064741604176,-12.036091316706072,-1.8822721089785013,-13.020514127257963,-14.452216620048409,-8.6154075806924,-3.6616425550444625,-3.244977241954322,-0.8599999999999999
3.3553449152108863,-11.586343686560717,-0.918788436954471,-12.686399386442435,-14.571030354451507,-9.238432635073002,-4.124095735345428,-4.059059159193076,-0.8559999999999999
4.315631131228862,-11.038281467614915,0.1544776686615621,-12.263834242262046,-14.561675368619001,-9.768931692512766,-4.484119095214121,-4.797304513826415,-0.8519999999999999
5.344409588011423,-10.404799617285757,1.32456572620353,-11.75212950854106,-14.418442355699527,-10.189811526660831,-4.721918701661632,-5.428351702366161,-0.8479999999999999
6.413378608202802,-9.705153399667443,2.5724816913304642,-11.155525491120839,-14.143329811602404,-10.488647401001911,-4.822208798828269,-5.924113838281393,-0.8439999999999999
7.488665208727649,-8.964983123450509,3.872923356146557,-10.483551660678593,-13.74629829401711,-10.658976706863115,-4.775667900072211,-6.261567342623799,-0.8399999999999999
8.531609126974836,-8.215725576807749,5.194564148662236,-9.750938569325303,-13.244913147208857,-10.701301575396842,-4.580214369951328,-6.42442118644086,-0.8359999999999999
9.500161374920651,-7.493364481919888,6.5009789685702675,-8.977051775551026,-12.663383588319013,-10.623671871995217,-4.241957329639215,-6.404510941724354,-0.8319999999999999
10.350843551208305,-6.836574861640378,7.752192965122461,-8.184889612390247,-12.031083858928286,-10.441761582459904,-3.775701499700462,-6.202778612498491,-0.8279999999999998
11.04113362197199,-6.2844035862544825,8.9067429871593,-7.399736363240052,-11.38069149160008,-10.178389403638466,-3.2049003036558865,-5.829712560504639,-0.8239999999999998
11.532097775956334,-5.873680631235302,9.924084842466062,-6.647579148684527,-10.746088408428134,-9.86246337683169,-2.5609633483300485,-5.305134831827235,-0.8199999999999998
11.791076723996424,-5.6363672326178875,10.767162929260516,-5.953386372654782,-10.160150965570894,-9.527352983052438,-1.8818466368006295,-4.657247199739686,-0.8159999999999998
11.794238211781401,-5.597038687869711,11.404960229502773,-5.339335642125466,-9.652536086223114,-9.208730620104772,-1.20990839368943,-3.920898816377141,-0.8119999999999998
11.528799421175329,-5.770699878235803,11.814836208488371,-4.823100343138018,-9.247584057514084,-8.94199973886938,-0.5891162648591965,-3.1351325300477715,-0.8079999999999998
10.994699766246887,-6.1611450586499945,11.984434160144904,-4.4163571637886365,-8.962504410133702,-8.759530813325975,-0.06182950893060912,-2.3401977675792907,-0.8039999999999998
10.205494403559708,-6.76007248370745,11.912928581685186,-4.123722632060733,-8.806050833974966,-8.688013218776959,0.3344984742500685,-1.5743443357605074,-0.7999999999999998
9.188277108980405,-7.547117601862611,11.611422411148833,-3.942317644552757,-8.77787893818668,-8.746251689184536,0.5703046173314714,-0.8707783476065849,-0.7959999999999998
7.982535957885999,-8.490874498263526,11.102396182764853,-3.8620835601181023,-8.86870734477216,-8.943679196530907,0.6262391121190749,-0.2551449761214357,-0.7919999999999998
6.637972388602412,-9.550860791713093,10.418227127758449,-3.866861058194872,-9.061297409442057,-9.27975223096129,0.4945814910111448,0.25617626257427517,-0.7879999999999998
5.211445511209235,-10.680268749282519,9.598908426146155,-3.936126637779709,-9.332159724160503,-9.744269543501503,0.17962888864420457,0.6567893098285893,-0.7839999999999998
3.763318250292116,-11.82924550604875,8.689193064607473,-4.047180205496513,-9.653799835342086,-10.318527409536928,-0.3029372811294433,0.949964793946311,-0.7799999999999998
2.353556111072161,-12.94837698034263,7.735447021896337,-4.177509958744169,-9.99724599886664,-10.977115198599943,-0.9275865795307467,1.147366201744589,-0.7759999999999998
1.037946584625523,-13.992033065765881,6.782512258805248,-4.307042456457162,-10.3345722994055,-11.690089041030891,-1.66117393123384,1.267004148381572,-0.7719999999999998
-0.13522372376340108,-14.921262212079725,5.870862832086912,-4.420008632988694,-10.641136980048868,-12.425241332042393,-2.4656145136958028,1.3306923979982166,-0.7679999999999998
-1.1277609652861509,-15.705987227567979,5.0343009166252735,-4.506206665555208,-10.897291134710626,-13.150200481564077,-3.300705429755469,1.3613432331578856,-0.7639999999999998
-1.9132475686276793,-16.326347295338184,4.298377459059958,-4.561521595401896,-11.089384665631426,-13.834150855349538,-4.126799880316408,1.3804545782622402,-0.7599999999999998
-2.477763707512982,-16.77314654142277,3.6796285445474064,-4.587670338552384,-11.21000683028455,-14.449057439207005,-4.907089316646163,1.4060892346717608,-0.7559999999999998
-2.8197163048043903,-17.047481093066246,3.1856101928182015,-4.591259581287981,-11.25752457769608,-14.970391224843308,-5.60934298115845,1.4515382756641593,-0.7519999999999998
-2.9489302603723244,-17.159694517895687,2.8156216776369285,-4.582341829082835,-11.235087463055612,-15.377446560588913,-6.207067685806194,1.5247246613360854,-0.7480000000000002
-2.88518328783294,-17.127842701636503,2.561953228404535,-4.572707504566407,-11.149325947465583,-15.653398397954604,-6.680149865460889,1.6282752824224325,-0.7440000000000002
-2.6563458315780233,-16.97584314593416,2.4114800697058723,-4.57415280796373,-11.008972122485153,-15.785260599813782,-7.015096481589138,1.760104417127792,-0.7400000000000002
-2.2962554967313933,-16.731462791239238,2.347434701037212,-4.5969268397133405,-10.823590216247025,-15.763882986870687,-7.204993438440303,1.9143242661378848,-0.7360000000000002
-1.842439789455132,-16.424278291147417,2.3512066445924775,-4.648504934112631,-10.602539348545507,-15.58407246960807,-7.249265624874402,2.082319052665831,-0.7320000000000002
-1.3338036736728078,-16.08372171798625,2.404041823128644,-4.73276903513329,-10.354219096623845,-15.244847328355766,-7.153272500880922,2.25386648396033,-0.7280000000000002
-0.8084041037323528,-15.737297663141861,2.4885460898657206,-4.849609581839595,-10.085582495297265,-14.749746296429073,-6.927725611216127,2.418240271477578,-0.7240000000000002
-0.30143091634261854,-15.409030679850234,2.5899325695026616,-4.994911941086704,-9.801857608785115,-14.107046315441972,-6.58788938976295,2.565257217415107,-0.7200000000000002
0.15650167530300685,-15.118184410078857,2.6969789644295536,-5.160864180182233,-9.50640886238302,-13.32972641973362,-6.152537495032334,2.6862327855465464,-0.7160000000000002
0.5406811757667134,-14.878282024813346,2.8026792305976227,-5.336514574989723,-9.200684407746577,-12.435053161089883,-5.64267537247833,2.7747950985446463,-0.7120000000000002
0.8332183918135998,-14.696441944806658,2.90459190356642,-5.508502719645541,-8.884216030409958,-11.443730620836629,-5.080082849502364,2.827504401861283,-0.7080000000000002
1.023591881832873,-14.573026848217985,3.004902524856793,-5.661886246543228,-8.554654486940185,-10.378634103444499,-4.4857652584312895,2.8442419354329527,-0.7040000000000002
1.1088665385036984,-14.501602972933828,3.110219636327514,-5.780994422965999,-8.207840865037268,-9.26322662247702,-3.8784308157615737,2.828356332015569,-0.7000000000000002
1.0936261068676014,-14.469226335757977,3.231111258269795,-5.850261845284921,-7.837938005724913,-8.119836821922387,-3.2731395509862917,2.786571452545874,-0.6960000000000002
0.989623765920447,-14.45710024783946,3.3813721716364453,-5.855022885299313,-7.437671411203086,-6.968039286903857,-2.680290248513364,2.728659582060012,-0.6920000000000002
0.8151173378233985,-14.44166189212045,3.577006151377008,-5.782270727928382,-6.9987450231823605,-5.82339986199706,-2.1051123963818323,2.6668728032327973,-0.6880000000000002
0.5938435415140715,-14.396131023359409,3.8349271209173175,-5.621390689551185,-6.51248497918929,-4.696808209676953,-1.5477861921635725,2.615125510499759,-0.6840000000000002
0.3536186499042131,-14.292480613563132,4.171436328892659,-5.364856647146552,-5.970711456595044,-3.5945119099547624,-1.004211553544316,2.587957036490935,-0.6800000000000002
0.12462244987463489,-14.103687535218633,4.600602500492298,-5.008842551206288,-5.366761225925938,-2.518818026761698,-0.4673140376668261,2.599366825911811,-0.6760000000000002
-0.06250535341973773,-13.806033498713546,5.132725628455816,-4.553673024164695,-4.696519753304461,-1.4692903874937864,0.07133221048075811,2.661665211791388,-0.6720000000000002
-0.1785850366608539,-13.381188555281867,5.773078213950655,-4.00403382536997,-3.9593000244877814,-0.4441876378893909,0.6198310058234373,2.7844925367603013,-0.6680000000000001
-0.19766529224901142,-12.817836497622853,6.521082669198524,-3.36888701057595,-3.158430977472941,0.5581234891696458,1.1844929937338797,2.974131900207613,-0.6640000000000001
-0.09851598432195985,-12.112684817235074,7.370008368121406,-2.6610822676522825,-2.301480001799783,1.5379922826544195,1.7687589953919085,3.2331895130993757,-0.6600000000000001
0.1342200251626542,-11.270810247358742,8.307182006061549,-1.8967105643466553,-1.4001080832856587,2.493672303559017,2.3726167919027494,3.5606493443588034,-0.6560000000000001
0.5092321017341845,-10.30538840621049,9.314629630662164,-1.0942897310165303,-0.4696178531325117,3.420914581825898,2.992507682362773,3.952236395195561,-0.6520000000000001
1.028089318242933,-9.236922812860858,10.370022517649879,-0.2738924491762873,0.47171055953256236,4.312936897233776,3.6216364752167847,4.400966670485525,-0.6480000000000001
1.685103529415385,-8.092117031381253,11.447787093944621,0.543680820828544,1.4033992628633252,5.16069475575153,4.250557954941882,4.897745043746866,-0.6440000000000001
2.4674911987031733,-6.902520913339157,12.520264432196,1.3376211396272266,2.303601673898311,5.9533666279182915,4.867917635078114,5.431902938029615,-0.6400000000000001
3.3558390576179966,-5.7030410593936285,13.55885521117053,2.0877175253877294,3.149959736119542,6.67898055200419,5.461257204744781,5.991628253245112,-0.6360000000000001
4.324886026678831,-4.530369675398361,14.5351289893393,2.7748890524185494,3.9204959386062415,7.3251271838838905,6.017828042760698,6.564296206956717,-0.6320000000000001
5.344609919269424,-3.421380347933468,15.421886595103777,3.381687126883218,4.594537926949422,7.879706496256452,6.525371604377439,7.13673753480411,-0.6280000000000001
6.381568970765911,-2.411555674056178,16.194149210121434,3.892789271659227,5.15364226242041,8.331648827810287,6.97282842060202,7.695484173059237,-0.6240000000000001
7.400426147194265,-1.533522063204872,16.830035280329895,4.29547999593083,5.582462267416264,8.671556206904718,7.350947481019151,8.227034047816872,-0.6200000000000001
8.365584966862185,-0.8157594152541048,17.311489450102016,4.580098785473961,5.86950637631896,8.89222990939159,7.6527910081263695,8.71818400440305,-0.6160000000000001
9.242866374158524,-0.2815411295170911,17.62483507286032,4.740422395154447,6.007743464755842,8.989065509488588,7.874144656340119,9.156475527596694,-0.6120000000000001
10.001137999018749,0.05184356864468409,17.761122628947355,4.773932959453417,5.995013717367911,8.960292258515608,8.013827412769684,9.530764282760948,-0.6080000000000001
10.613779132359618,0.17353408992633046,17.71624711190816,4.681915813116797,5.8342010054998426,8.807020962992022,8.07385900468557,9.831872114288988,-0.6040000000000001
11.059854831663223,0.0791746746418509,17.490822046546967,4.469346761109227,5.533130252745318,8.533068681720394,8.059419341449042,10.053237878655745,-0.6000000000000001
11.324902836783666,-0.2293721732827665,17.0898323253966,4.144570617077505,5.104179665455736,8.144562063815313,7.978547006484575,10.191470735503763,-0.5960000000000001
11.401306884521647,-0.7446080871892402,16.5221365641503,3.718827146273574,4.563641383248703,7.649377136667848,7.841570339089388,10.24672661190468,-0.5920000000000001
11.288311729383153,-1.4541478298138673,15.799932652703147,3.205721069760142,3.93091245846008,7.056531256073983,7.6603283348121085,10.222863877026048,-0.5880000000000001
10.991784779874731,-2.3414760092578524,14.938307099381463,2.6207323491139185,3.227626970293925,6.37567364830272,7.447294891800821,10.127372485812375,-0.5840000000000001
10.523816061582565,-3.3865829975290245,13.954938576902133,1.9808122590919321,2.4768267364641545,5.61679988954255,7.214742269721754,9.97109876395752,-0.5800000000000001
9.902181668194137,-4.566437553282919,12.869931364258049,1.3040302634143819,1.7022108249595966,4.790240215802993,6.974049849193683,9.767794569289402,-0.5760000000000001
9.149623219847093,-5.8553556746157005,11.705661005927563,0.6091684251646745,0.927429460658102,3.906868458511191,6.735189355548156,9.533500337200847,-0.5720000000000001
8.29287270489165,-7.225388024614322,10.486476762810746,-0.08485192451903334,0.17534162172653112,2.978398183141533,6.506341473075036,9.285746377772217,-0.5680000000000001
7.3614045380289355,-8.646834933116784,9.238151986007123,-0.7597615303901843,-0.5328246958039475,2.0176230116578493,6.2935769272980915,9.042566164508703,-0.5640000000000001
6.385996695886505,-10.088921238393645,7.9870815033696445,-1.3988886444647077,-1.1783907858001896,1.0385205726713012,6.100580369139136,8.821374719178754,-0.56
5.397265935922292,-11.520578181070197,6.7593321503680315,-1.988097451942083,-1.7461164383596355,0.05622170010358224,5.928463998677912,8.637838970966758,-0.556
4.4243617070740955,-12.911234027442763,5.579707328201421,-2.5165292156136227,-2.224903983662273,-0.9131053014375925,5.7757619795885455,8.504907651457097,-0.552
3.493962104099905,-14.231516423839356,4.4709814232440435,-2.9769937943433322,-2.6081649120297126,-1.852400897665235,5.638705419126742,8.43216174804503,-0.548
2.6296445445816916,-15.45379999265632,3.453415207064137,-3.365931646341786,-2.8937392588708786,-2.7438549359375393,5.511856940149135,8.425603431149327,-0.544
1.8516306983664297,-16.552576397885474,2.544597639489208,-3.682945944109445,-3.0833266579593452,-3.5690304446069256,5.3891294933269345,8.487929974389479,-0.54
1.176841233106745,-17.504673310433454,1.759582651310173,-3.929979591463801,-3.1814754890027928,-4.308989650475176,5.2651237838421645,8.619245888353221,-0.536
0.6191431343556113,-18.28939929071894,1.1112098360486957,-4.110279219768141,-3.1942729366517515,-4.944481168297087,5.136609527312599,8.818066356370876,-0.532
0.18963553518716925,-18.88873411484871,0.6104328105731582,-4.227340046605612,-3.12796525997717,-5.456291526995956,5.003880489089468,9.082382249513234,-0.528
-0.10318254382889869,-19.2876947330424,0.2664592968842947,-4.284041673695747,-2.9877819179502545,-5.825884783728291,4.871672992131809,9.410523085594106,-0.524
-0.2534696813989008,-19.474962050102516,0.08655765718678321,-4.282145809149324,-2.777208508856422,-6.0364167224449785,4.74938624902021,9.801595063737077,-0.52
-0.2583438176766002,-19.443761986364834,0.07549205432304751,-4.2222415922530185,-2.497854726355717,-6.074113847431803,4.6504756862552785,10.255378636549015,-0.516
-0.11836139741011475,-19.192897798379867,0.23466524673314204,-4.104128570460306,-2.149934899687212,-5.92989132281822,4.591057236673654,10.771700073344855,-0.512
0.16194846251801298,-18.727764631317065,0.5611353453672936,-3.9275482130652164,-1.7332603491899352,-5.600990560176607,4.587906616033246,11.34940183578219,-0.508
0.5736411514911373,-18.061149705491587,1.046718708781635,-3.6931162434253255,-1.2485520189164063,-5.0923669705387,4.656138781762784,11.9851117511511,-0.504
1.1031485377652182,-17.213630278832763,1.6773933902243412,-3.4032724418422107,-0.6988261338204005,-4.417560638880621,4.806906887676862,12.672050191170301,-0.5
1.7324199338375204,-16.213424677796183,2.4331770437610105,-3.063060525772118,-0.09059208732081814,-3.5988408210834595,5.0454668763418375,13.399118283134499,-0.496
2.4394776186744758,-15.095620254553227,3.288581889555414,-2.6805795731151503,0.5653698710527504,-2.6665172211317483,5.3699121237309955,14.150480476677725,-0.492
3.199393973847016,-13.900783573674401,4.213662703201637,-2.2670040201923314,1.2538185039767793,-1.6574332762157764,5.7707903349515615,14.90579030919156,-0.488
3.9856305002998234,-12.673045541117954,5.17557934664935,-1.8361473727850148,1.9555172662759555,-0.6127783856634512,6.2316740129991945,15.641104553107715,-0.484
4.771608524561677,-11.457837611476396,6.140503811407611,-1.403634863993572,2.64830185721699,0.42454140777517235,6.7305892286982445,16.330400515184557,-0.48
5.532328214123869,-10.299512453989239,7.0756380957748455,-0.9858255185314304,3.3085808241253325,1.412673448244558,7.242061027399434,16.94749229628535,-0.476
6.2458387125391805,-9.239094210237377,7.951095201352851,-0.598659038244449,3.9130266560486087,2.3134215029973424,7.739446459564738,17.46807193652927,-0.472
6.894390948940953,-8.31236957015646,8.741430913263184,-0.25659460818946833,4.4401978675079645,3.094414461807819,8.197208236286222,17.871592218816364,-0.46799999999999997
7.46516601046923,-7.548462189123135,9.426686500934483,0.028231483429098425,4.87187166521057,3.7306460394080925,8.592826406161588,18.142750764310698,-0.46399999999999997
7.950552231598877,-6.968942852549256,9.992898671273046,0.24656263344584417,5.193951505305468,4.2052868919386475,8.908140071536497,18.272414322145714,-0.45999999999999996
8.348022030599106,-6.587438170887004,10.432131717784966,0.39229161091884013,5.396921286099408,4.50978055519267,9.130037736795746,18.257921313089902,-0.45599999999999996
8.659713465590974,-6.409635275058898,10.742161852196798,0.4624972629162718,5.475919731698296,4.643341906766441,9.250552695690189,18.102809266883746,-0.45199999999999996
8.891844374515458,-6.433549039726518,10.925979524784086,0.4573404093331064,5.430582529321178,4.6120603387730155,9.266543982986645,17.81612027815177,-0.44799999999999995
9.054079713199538,-6.6499236656388625,10.991265905957114,0.3799221325120108,5.264826086794447,4.427844936002745,9.179213700674872,17.411508961870624,-0.44399999999999995
9.158936309009777,-7.042683854350054,10.949944837811662,0.23618025731194692,4.9867107136895745,4.107417323786565,8.993691415120388,16.906373113235233,-0.43999999999999995
9.221254851278958,-7.58942220859313,10.81782861230566,0.03484041473586341,4.6084331314976685,3.671466462691893,8.718813003422735,16.321143755241557,-0.43599999999999994
9.257716281230783,-8.261984532383496,10.614294227081423,-0.2126280948541055,4.146392343262066,3.14395954628901,8.367082097296365,15.678747243081155,-0.43199999999999994
9.286340232828348,-9.027270831836162,10.361867603697204,-0.4921528052187698,3.6211818268994005,2.5514906822617167,7.954674234381418,15.004133792903273,-0.42799999999999994
9.325883133732452,-9.848386326993868,10.08557204870058,-0.7874172517112257,3.057313929817764,1.9224839444398503,7.501265063391653,14.323694897676367,-0.42399999999999993
9.395068339561462,-10.686227345774698,9.811935639115617,-1.0805311849232946,2.482512956199324,1.2860931596717913,7.029475571833013,13.66440661985261,-0.41999999999999993
9.511639273275271,-11.501465714712946,9.567655706287663,-1.353015930245017,1.9265316759510185,0.6707693738327132,6.563845102439647,13.052648358777025,-0.4159999999999999
9.691304642824345,-12.256749808331264,9.378044987369137,-1.5869985374577045,1.4196022351169804,0.10264230658148177,6.1294175184804764,12.512806505472966,-0.4119999999999999
9.94669762151105,-12.918847187938523,9.26546575536026,-1.7664368820616843,0.9907443697850802,-0.396009817629066,5.7501688154519215,12.065893460285118,-0.4079999999999999
10.286473046670745,-13.460456787176076,9.247958424112227,-1.8781991606546118,0.6661722154324021,-0.8079084870964359,5.4475540163234015,11.728437935666074,-0.4039999999999999
10.714625103645906,-13.861507364437387,9.338201697797093,-1.9128835534939248,0.46797351515535723,-1.121336979464729,5.239396068362746,11.511828433199385,-0.3999999999999999
11.23004671233047,-14.109889539447341,9.542841238237903,-1.865350912211694,0.41312379955792977,-1.3300662602007263,5.139207591840934,11.422153695997656,-0.3959999999999999
11.826299753307683,-14.201687243168859,9.862137902202086,-1.7350150544799976,0.5127958187005142,-1.4327512484088871,5.155887717025445,11.460442634586606,-0.3919999999999999
12.491546986492493,-14.14103649888911,10.289850287318579,-1.5259620173859116,0.7718747299352859,-1.4320063602456987,5.29364128161131,11.623123859604627,-0.3879999999999999
13.20862183828513,-13.939729463543799,10.81329106862893,-1.2469445163375465,1.1886077280279732,-1.3333897187174202,5.5519659898691724,11.902530614566178,-0.3839999999999999
13.955269714930779,-13.616618864730242,11.413564592373552,-0.9112385467183381,1.7543843645649178,-1.1444738759759507,5.925631922313761,12.28735375931715,-0.3799999999999999
14.704652851804447,-13.19680506119121,12.066064547618497,-0.5362896030900925,2.453719144829736,-0.8740952059405815,6.404684439641751,12.763046352854818,-0.3759999999999999
15.426232809662839,-12.710547329573252,12.741342485900612,-0.14305208358048827,3.264549049112693,-0.5317976543644929,6.97457595197511,13.312257772074627,-0.3719999999999999
16.08710964441037,-12.191852396428063,13.406427931577994,0.24504262700175872,4.158944441139723,-0.1274450858076775,7.616539308603425,13.915392277564358,-0.3679999999999999
16.653812064939068,-11.676747338195174,14.02659732730944,0.6034721624404158,5.104269427403283,0.3290302268315694,8.30826161437439,14.551346206330788,-0.3639999999999999
17.09442864686434,-11.201312415271689,14.567484581622969,0.9082458761958687,6.064744813221961,0.8277663001201518,9.024840187685436,15.198407698118352,-0.3599999999999999
17.380880134487786,-10.799604756020535,14.997337367776147,1.1375691120217883,7.003294856477725,1.3590153445300253,9.739943297637062,15.83524125870597,-0.35599999999999987
17.491078893169323,-10.501634971347475,15.289174576873826,1.2733270564093742,7.8835164265786934,1.9131145537697303,10.427073750908107,16.441849351213143,-0.35199999999999987
17.410716136240627,-10.331565422951991,15.422602970495918,1.302198432269364,8.67160066549103,2.480413874819694,11.0608366626093,17.00040618599582,-0.34799999999999986
17.134469047875076,-10.30627848015414,15.385108859510321,1.216292289850239,9.338062293535703,3.0512030790374953,11.618133500682324,17.495888408305813,-0.34399999999999986
16.666520713642132,-10.434416150726978,15.172740685312741,1.0133101051899533,9.859182297402741,3.6156946681095063,12.079235101966844,17.916475366299196,-0.33999999999999986
16.02040234851503,-10.715933287027376,14.790206190098646,0.6963332214072011,10.218126301935705,4.164124262319079,12.428717325138656,18.253745710723777,-0.33599999999999985
15.218256553577454,-11.142156736899809,14.250483769583916,0.2733882529493785,10.405740026506425,4.687012603740976,12.656261038976199,18.502738431517592,-0.33199999999999985
14.289656922853748,-11.696315538541597,13.574069181618743,-0.24306567231087506,10.421029632894646,5.175589232645695,12.757307997143993,18.661953234786402,-0.32799999999999985
13.27010843514541,-12.354499920225656,12.78795126148263,-0.8366446081174974,10.27131057618993,5.622318648662455,12.733521347270258,18.73332810769207,-0.32399999999999984
12.199322321234359,-13.087004086523802,11.92436275365928,-1.4875391555759974,9.971976208365971,6.021421338169233,12.59294846382868,18.722170977145886,-0.31999999999999984
11.119338700602487,-13.859991828946292,11.019321456304464,-2.1730618691054975,9.545829025980913,6.369273435542543,12.34977111940232,18.63697919463695,-0.31599999999999984
10.07257311894979,-14.637389616883606,10.110983256789524,-2.868315317773778,9.021951354984848,6.664609593519341,12.023581908583294,18.489085536318118,-0.31199999999999983
9.099876385254785,-15.382875905428264,9.237861466029916,-3.5470333664805738,8.434154371035836,6.90851956829545,11.638220649327668,18.29211259642168,-0.30799999999999983
8.238697544626463,-16.061824093985937,8.436996299392689,-4.182616329148291,7.819100442074534,7.104279095298982,11.220281442759706,18.061259704408116,-0.3039999999999998
7.521423624924613,-16.643074533455376,7.742170036316266,-4.749347956921669,7.214226728037989,7.257071995302799,10.797431623708544,17.812466489363008,-0.2999999999999998
6.973957095833158,-17.10043563676839,7.182269394845655,-5.223739095133778,6.655620021401415,7.373660876324221,10.39669046997211,17.56151087868605,-0.2959999999999998
6.614595077988018,-17.413829312193844,6.779905817609491,-5.585887839405299,6.176013273594176,7.462067341678518,10.042822369380232,17.32312209168368,-0.2919999999999998
6.453279254607322,-17.570013006127333,6.550402629968483,-5.820702615531912,5.803077305918426,7.531320532698591,9.756996158811836,17.110207303287307,-0.2879999999999998
6.491273143820313,-17.56284730360958,6.501229196108625,-5.9188287889542295,5.5581476908132155,7.591304359082539,9.555829983745697,16.933283718137808,-0.2839999999999998
6.721293093561662,-17.39313238180322,6.631910791925341,-5.87715564478189,5.455460239136636,7.652677046237642,9.450879389662209,16.80017428185355,-0.2799999999999998
7.1280854938146545,-17.068088200407797,6.934389748511831,-5.698842836067956,5.501893019819883,7.7267766836455145,9.448554311701066,16.715978517675612,-0.2759999999999998
7.689416920225425,-16.600582587478193,7.3937763064425805,-5.392872589869629,5.697153488809519,7.8253960783330605,9.550392896591303,16.683285383773303,-0.2719999999999998
8.377420832469516,-16.008217658208785,7.989405813355117,-4.97319615756366,6.034313558484799,7.960321932568084,9.753589433137044,16.702559681933902,-0.2679999999999998
9.160207858101014,-15.312383352530926,8.696097520292707,-4.457602030669046,6.500573400352609,8.142572723870956,10.051660775863954,16.77260394009023,-0.2639999999999998
10.003595547044355,-14.537384672372937,9.48548451629139,-3.8664834825466494,7.078121192543044,8.381318501606968,10.435127957890224,16.890975135613324,-0.2599999999999998
10.87277750729394,-13.709731600828524,10.327274516057203,-3.2216987786608375,7.744964993674836,8.68252451490353,10.892096265464337,17.05423969489522,-0.2559999999999998
11.733773560781879,-12.857623841959768,11.19033706823602,-2.545671348964621,8.475664161610142,9.047441032579073,11.408659286584113,17.25800243034309,-0.2519999999999998
12.554595622789389,-12.010564799806456,12.04359974889006,-1.8607712005564787,9.241977676878406,9.471157634916139,11.969129582146225,17.496736066007674,-0.24800000000000022
13.306184166537129,-11.19894271285275,12.856834234578303,-1.1888996353623829,10.013533927731075,9.941509362650827,12.556173664946229,17.763520203027888,-0.24400000000000022
13.963238759449702,-10.453387089815942,13.601459443913694,-0.5511334367746379,10.758655047590256,10.438611329952934,13.150957859987372,18.049822378035813,-0.2400000000000002
14.505036033498516,-9.803779332097308,14.251449641425921,0.03269382111341468,11.445416204670643,10.935193584403004,13.733385032177484,18.34541226147899,-0.2360000000000002
14.91622291325259,-9.27793783139572,14.784335106645663,0.5445108015544289,12.042917494808504,11.397750223883246,14.282450141322741,18.638431465524004,-0.2320000000000002
15.18746095504493,-8.900140193632506,15.182180575815721,0.9685736292343314,12.522650314929836,11.788369728256395,14.77670185967908,18.91559209291683,-0.2280000000000002
15.315746421065615,-8.689722304117733,15.432377069781161,1.2919757135339376,12.85979776728769,12.06702632588338,15.194787699687506,19.162470493068056,-0.2240000000000002
15.304276045939705,-8.659970031058837,15.528115218957945,1.5050225045339447,13.034339798150313,12.194106222371778,15.516083941269853,19.36389642645851,-0.2200000000000002
15.161855186694499,-8.817407465406403,15.468510020205137,1.6014697062442966,13.031921810891568,12.133003641996302,15.721453082684558,19.504487507910223,-0.2160000000000002
14.901983844615817,-9.161450808484771,15.258458814615492,1.5787038584203454,12.844535293030718,11.852698162755209,15.794193263230891,19.569403193181557,-0.2120000000000002
14.541826618272125,-9.684317766624446,14.908367121127556,1.4379663020085998,12.471090595025442,11.330255894084761,15.721211527718197,19.54535944879418,-0.20800000000000018
14.101244090534914,-10.371094004710097,14.433844651568034,1.1846670379738065,11.917917269658972,10.553157557130424,15.494367870205291,19.421860673400637,-0.20400000000000018
13.60196420278184,-11.199939538738636,13.855382287959126,0.8287340275622634,11.199134780814836,9.521269357921733,15.111834886578391,19.192506279871612,-0.20000000000000018
13.066855676907188,-12.1425197373838,13.197917670540487,0.3848434618990826,10.336739981249432,8.248184722711779,14.579233073202392,18.85614958552414,-0.19600000000000017
12.519181625799842,-13.164816829959378,12.490128553706178,-0.12768014998300092,9.360198423766054,6.761624985057077,13.910255444965507,18.41764640508856,-0.19200000000000017
11.981697629358884,-14.228478198262042,11.763295164739885,-0.6854878979567758,8.305339839071005,5.102633991514762,13.126511712012078,17.88795114273418,-0.18800000000000017
11.475525209890776,-15.292772396116542,11.049657625059243,-1.2624492300111285,7.212461509554651,3.3234502899273233,12.256429261503522,17.28341931361019,-0.18400000000000016
11.018851056201228,-16.317075754779772,10.380337659022523,-1.8314548625861344,6.12371559849179,1.4841641965252592,11.33324046372551,16.624346253597235,-0.18000000000000016
10.625621361091133,-17.263654496199443,9.783042501532817,-2.366566793807584,5.0800394226005805,-0.3515014593728388,10.392303217304466,15.93295671397739,-0.17600000000000016
10.304470560328074,-18.100395436119697,9.279869709145938,-2.84519971855039,4.118017138935077,-2.120784001767926,9.468160688857065,15.231190230434756,-0.17200000000000015
10.05811849981244,-18.803110217328182,8.885551259228395,-3.24999759603297,3.2670973101130656,-3.766293960857142,8.591791876040828,14.538660263457466,-0.16800000000000015
9.883386280172683,-19.35710641942505,8.606404370801556,-3.570136462783322,2.5475243979132607,-5.239763645367851,7.788431135488477,13.871095979082511,-0.16400000000000015
9.771840371770658,-19.75786587795959,8.44011258999268,-3.801919870844285,1.969194801293864,-6.504801429241342,7.076175148631222,13.23942996292776,-0.16000000000000014
9.710925728484035,-20.010845905325287,8.376291155773362,-3.948689846382046,1.531468074088182,-7.538512916568771,6.46540361704932,12.649522686450807,-0.15600000000000014
9.68534881192258,-20.13056149000076,8.397654945569085,-4.020197223298745,1.2238097302184041,-8.332024600391408,5.958875300534489,12.10237478564934,-0.15200000000000014
9.678456370445037,-20.139174407836443,8.481547686942948,-4.031621899219721,1.0270571132691817,-8.890061844039096,5.552278134118996,11.594620168815638,-0.14800000000000013
9.673423395619576,-20.064801939095112,8.601615046176068,-4.0024026172108895,0.9150962668057137,-9.2297710798395,5.235036298056396,11.119131655543807,-0.14400000000000013
9.65417890057576,-19.9396879337543,8.729485425890854,-3.9549578434452752,0.856792770547731,-9.378950627616794,4.991277530503695,10.665671940760648,-0.14000000000000012
9.606111423407725,-19.79829390384823,8.836415849177513,-3.913302337084601,0.8180889242128266,-9.373809002489464,4.800966822611997,10.22161978954959,-0.13600000000000012
9.516662962755854,-19.675311434549965,8.894921375131915,-3.9015313507117777,0.7642218823963525,-9.256348414491447,4.6412559254745425,9.772841581456175,-0.13200000000000012
9.37591550011506,-19.60360080760102,8.880406623687128,-3.9421754349206846,0.6620105266530114,-9.07149476586526,4.488067619931514,9.30475035721023,-0.1280000000000001
9.177204755518396,-19.612125156829432,8.772759803915733,-4.054508018907582,0.4821084206503219,-8.86415218505439,4.317854129167461,8.803521575968702,-0.12400000000000011
8.917701908096696,-19.724034970725594,8.557792076204654,-4.25296892167185,0.20106008961756316,-8.676411435153694,4.109384939198398,8.257358090993392,-0.1200000000000001
8.598839359465469,-19.95510501943032,8.228361630591046,-4.5458998696500625,-0.1970263411991411,-8.545143650813706,3.8453773728442098,7.657658300778728,-0.1160000000000001
8.226451212261566,-20.312701596303697,7.785039790730665,-4.934756090017393,-0.7193442474747123,-8.500149483898836,3.5138020600056663,6.999956061380665,-0.1120000000000001
7.8105424526496074,-20.7953797266608,7.236237544451269,-5.413887129574555,-1.3638775863574075,-8.562939942158412,3.108749181271909,6.284543717782276,-0.1080000000000001
7.364663887007888,-21.39312042082267,6.597777789832719,-5.9709081736042355,-2.1195351626731735,-8.746146518005288,2.6307926340309775,5.516726273367338,-0.10400000000000009
6.904936940754473,-22.08814287664869,5.891954369923443,-6.587623286887133,-2.966901167594955,-9.05351351887381,2.0868322762399494,4.706681968832762,-0.10000000000000009
6.448841898628921,-22.85616712365176,5.146170680206967,-7.241403473483267,-3.879524196264361,-9.480399064516051,1.4894468795186828,3.8689419293723315,-0.09600000000000009
6.0139449847618724,-23.667960015086045,4.391300924460172,-7.906861571295706,-4.825613801792086,-10.014685513307086,0.8558541747752653,3.021552953097431,-0.09200000000000008
5.616768429221019,-24.49098387891445,3.6599501491822037,-8.55762038249596,-5.769972833246861,-10.63797726714946,0.20662685325985208,2.185032944122624,-0.08800000000000008
5.271980454635904,-25.290993249564668,2.9847848638914005,-9.16796414937573,-6.6759863324229105,-11.326957917603242,-0.4356692773396347,1.3812467080492965,-0.08400000000000007
4.9919977225612495,-26.03348745450988,2.3970582496330635,-9.714207449324814,-7.507520763435297,-12.054800439391286,-1.047774989734135,0.6323129832086796,-0.08000000000000007
4.786976762618761,-26.68500529041833,1.925377713322073,-10.17569899449217,-8.230648591040056,-12.792570016372514,-1.6068936156195441,-0.04039170057697561,-0.07600000000000007
4.665064346001245,-27.21431211376441,1.5946879844155681,-10.53547213544531,-8.81517527136881,-13.510606777229313,-2.0916845166621982,-0.6171207960452971,-0.07200000000000006
4.632713927225177,-27.59355505361975,1.4253976000112916,-10.780628142303438,-9.235981884023575,-14.179898950654787,-2.4831147456091003,-1.0805643940617298,-0.06800000000000006
4.694869575003566,-27.799445030240612,1.4325707622801684,-10.90257380676053,-9.474198599717125,-14.773447987390876,-2.7651978064303986,-1.4166118748084227,-0.06400000000000006
4.854867111847922,-27.814478103014775,1.6251348071322238,-10.897227282105856,-9.518202676961069,-15.26759928980207,-2.925637309246106,-1.6150914559396838,-0.06000000000000005
5.113991036284155,-27.62815033902994,2.0051036104779034,-10.765261708139082,-9.364405829590934,-15.643282552843061,-2.9563774721098692,-1.6704768591666515,-0.05600000000000005
5.470732078356491,-27.2380635572368,2.566875293948856,-10.512388937965552,-9.017769146511155,-15.887081437778242,-2.854045194208382,-1.582514297289407,-0.052000000000000046
5.919887714970703,-26.650773732719163,3.296716746208888,-10.14961261892141,-8.491960752231927,-15.99203134857066,-2.620245315292145,-1.356681539447898,-0.04800000000000004
6.451714485207813,-25.882210191136632,4.17258568070424,-9.693320487069276,-7.80905667537912,-15.958029928570205,-2.2616456002801524,-1.004353345076833,-0.04400000000000004
7.05135765538045,-24.957508380078114,5.164444550954003,-9.165064796538694,-6.998696824289842,-15.79175649836505,-1.7897804576062768,-0.5425389244709748,-0.040000000000000036
7.6987425267337155,-23.910161888594548,6.235174784700321,-8.590915377997915,-6.096662266443234,-15.506051187477286,-1.2205290820153003,0.00689864808465579,-0.03600000000000003
8.369029103916706,-22.780493656472864,7.342115714190404,-8.000350361277594,-5.142926054500709,-15.118789559387157,-0.5732748484989862,0.6185406438093892,-0.03200000000000003
9.033640244989389,-21.613535673082815,8.439164280750134,-7.42473678631276,-4.179311366048351,-14.651367195392412,0.13019979090998568,1.2651290000542268,-0.028000000000000025
9.661792248702874,-20.456467839167797,9.479304032888727,-6.895516326497348,-3.2469395501983946,-14.126954736794127,0.8669997510527239,1.9195290393358038,-0.02400000000000002
