Fz,C3,Cz,C4,Pz,PO7,Oz,PO8,time_sec
-11.307425901974085,-7.0358942547313275,-11.52573031110644,-6.800865701657562,-4.058773647226305,-0.6028824624686393,-4.802686054156366,4.354489616675504,-2.0
-11.567108933903159,-7.255288570521029,-11.960458544157408,-7.153896987091143,-4.293085131119655,-0.5121613029216256,-4.4864671213503104,4.6970847941571225,-1.996
-11.830338845645763,-7.45822893161246,-12.372322526734143,-7.559550480540153,-4.586944951624231,-0.5471007480628152,-4.301382484649652,4.904854485167393,-1.992
-12.102460802226528,-7.643054763769473,-12.757160273897984,-8.006470420563701,-4.935291100455995,-0.7064410645550062,-4.262852101501575,4.969404894867455,-1.988
-12.385760285816808,-7.806122865190066,-13.108923594273898,-8.478552252275355,-5.328688620243654,-0.9817833874549637,-4.37720418345156,4.889729157509334,-1.984
-12.679802722698758,-7.9425857866184995,-13.420475158757558,-8.95653474051191,-5.754463935288102,-1.3586195167637476,-4.641726767031513,4.67153619469725,-1.98
-12.981938334936899,-8.047267209412222,-13.684474185636903,-9.419744805072316,-6.1980520064007605,-1.817720549776619,-5.045390862334759,4.326177369450399,-1.976
-13.287781711599713,-8.115435478325768,-13.89413503508813,-9.84771487834213,-6.644300383045512,-2.3366195521527056,-5.570017834197298,3.869415136267482,-1.972
-13.591576698438203,-8.143369221500883,-14.0437481718054,-10.221504597549545,-7.078565945178468,-2.8910183184232947,-6.191722539918063,3.3201925331371207,-1.968
-13.88646193725867,-8.128703335641989,-14.128959816700167,-10.52467196049603,-7.48753880819269,-3.456056440144514,-6.882530113586743,2.699477885416078,-1.964
-14.1647218195708,-8.070607941727129,-14.146881516956201,-10.743922085978141,-7.85980406033332,-4.007458263042494,-7.612102356729435,2.029207354437405,-1.96
-14.418128902426805,-7.969880029456181,-14.096134607023375,-10.869508645054445,-8.186199445076275,-4.522604905977591,-8.349516939732286,1.3313270485289728,-1.956
-14.638452318922587,-7.829014266850336,-13.976921679631726,-10.895469603671955,-8.460038354821286,-4.981560103182967,-9.065023443740563,0.6269399334700623,-1.952
-14.818132172792296,-7.652272750867267,-13.791163236520148,-10.819747376578732,-8.677242078600175,-5.368022425773669,-9.731667113707203,-0.06441932738818501,-1.948
-14.951035987449456,-7.445719965222987,-13.542670276056914,-10.64419496722699,-8.836384541079582,-5.67011980603087,-10.326652312574218,-0.7253460763025235,-1.944
-15.0331630354845,-7.21716173955129,-13.23727939738379,-10.374435559686793,-8.938628208686469,-5.880946805214225,-10.832339486903024,-1.340937594686391,-1.94
-15.063171974414992,-6.975942451384657,-12.882878692854455,-10.019545870439796,-8.987539287521926,-5.99878518954055,-11.236832401112204,-1.8989792632233886,-1.936
-15.042668164657513,-6.732602427956305,-12.489294875920407,-9.591572551350616,-8.988805865225427,-6.027019821628282,-11.534186799731383,-2.3899862524999644,-1.932
-14.976261507123295,-6.498446979785953,-12.0680656888004,-9.104941502365136,-8.949917718900567,-5.973819879537244,-11.724319534034054,-2.8071694205356668,-1.928
-14.871455456535289,-6.285103579001139,-11.632156468792061,-8.57585221426038,-8.8798780669791,-5.8516713443121695,-11.812704040311253,-3.1464026588336367,-1.924
-14.738437442136643,-6.104137261465392,-11.19568226939656,-8.021746596778673,-8.788999275955648,-5.676824689927983,-11.809917412661475,-3.4062588329411376,-1.92
-14.589813347944698,-5.96675969357588,-10.773667036526083,-7.460902070472928,-8.688790113181742,-5.468679398327362,-11.731071074571433,-3.5881511799412245,-1.916
-14.440276208452996,-5.883610733461215,-10.381816576589856,-6.912131518601292,-8.59188017854488,-5.249076994267463,-11.595115356206831,-3.696561833022642,-1.912
-14.306145106788646,-5.864530167365913,-10.036222835548239,-6.394502732441534,-8.511868338089366,-5.0414317291071225,-11.42396854751671,-3.739267727389562,-1.908
-14.204686461397646,-5.91820372864986,-9.752886551533248,-5.9269525830988075,-8.462958342316755,-4.869618049955699,-11.24140851210161,-3.727418684335241,-1.904
-14.153159170905873,-6.051590397951587,-9.546970879226443,-5.527691024832752,-8.459279751973218,-4.756576280411149,-11.071699980520897,-3.675319887218672,-1.9
-14.167599789637396,-6.2691157044299555,-9.431776216854677,-5.21335958838221,-8.513877094176534,-4.722681586756822,-10.938002762009226,-3.599828479378802,-1.896
-14.261444988373755,-6.571708598970687,-9.417516782882968,-4.997989939105272,-8.637443388588334,-4.784004512112645,-10.86067560606642,-3.519357809070284,-1.892
-14.444136670878152,-6.955821785019101,-9.510039861205996,-4.891864074893979,-8.836936210849998,-4.950637420108526,-10.855624594028962,-3.4525518650089513,-1.888
-14.71986605283048,-7.4125977720098675,-9.709651941453357,-4.9004068209944425,-9.114243526632796,-5.225270717547559,-10.932849290320316,-3.416740785015671,-1.884
-15.086609552955512,-7.927346998236452,-10.010223089192088,-5.023262781256468,-9.465085456945024,-5.602198314321529,-11.095339861204543,-3.4263361796830303,-1.88
-15.535601798785237,-8.479499509359899,-10.398739546412825,-5.253725425476232,-9.878350928528572,-6.066921509079377,-11.338478549913567,-3.4913727118758953,-1.876
-16.051365459216633,-9.043160259072938,-10.85544762062108,-5.578673165054466,-10.336051217030024,-6.596491800846115,-11.650078382926015,-3.616419368193098,-1.8719999999999999
-16.612357055665548,-9.588320430128297,-11.354661091722015,-5.979105782369357,-10.814002402935898,-7.160668939817697,-12.011129558471774,-3.8000410247139413,-1.8679999999999999
-17.192191496437967,-10.082655986134528,-11.866191533855437,-6.431266029505577,-11.28322610208845,-7.723863110824496,-12.397217006748244,-4.034887404799912,-1.8639999999999999
-17.761300712084292,-10.49371450161236,-12.357236909673999,-6.9082069009025115,-11.711915931761471,-8.247697111494308,-12.780447578381287,-4.308356500607649,-1.8599999999999999
-18.288810520903855,-10.79120897479112,-12.794481345547323,-7.3815794570887885,-12.067714930828288,-8.69391361037621,-13.131635056354753,-4.6036815941218645,-1.856
-18.744424102232166,-10.94914674819194,-13.146160883478478,-7.823414053144103,-12.32003595700805,-9.027314633778023,-13.422483799965699,-4.901272850642853,-1.852
-19.100176212043333,-10.947616781571984,-13.38393290328142,-8.207747397505063,-12.442232895098746,-9.218469412885266,-13.62759076876969,-5.180203900051282,-1.848
-19.332018014115967,-10.77417984840886,-13.484496426073127,-8.512054938371733,-12.413539161965307,-9.246025066063467,-13.726199015581003,-5.419815298421678,-1.844
-19.42124390501879,-10.42487961854828,-13.430976039857676,-8.71851173960837,-12.220755718061676,-9.098536355577098,-13.70370897103797,-5.60143932114976,-1.84
-19.355749891376554,-9.904883923559396,-13.214068624858182,-8.815089198000026,-11.859653654904587,-8.775751347200451,-13.552945406522344,-5.710199584858438,-1.836
-19.13104453082022,-9.22870396822239,-12.832884956496558,-8.796424103625597,-11.335981305726296,-8.289260194213842,-13.275109383616869,-5.736732514715413,-1.832
-18.75087373084157,-8.419885598422471,-12.295356792497175,-8.664329685176448,-10.66589680791198,-7.662383900309095,-12.880274706439895,-5.67858289577944,-1.828
-18.227308699729242,-7.510062002602956,-11.618067298936856,-8.427799987960352,-9.875634950392628,-6.929189521587106,-12.387263308407125,-5.540997909169837,-1.824
-17.580186982815295,-6.537305752337799,-10.825405489019222,-8.102398700186907,-9.00027436709348,-6.1325763530549375,-11.822766349938693,-5.336898045265068,-1.82
-16.835876455204627,-5.543806580500883,-9.948029845995698,-7.709008975716506,-8.081584207662313,-5.321474242130968,-11.21966197324865,-5.085923738912717,-1.816
-16.025434877757405,-4.57301445702333,-9.020734083776965,-7.272031347584466,-7.165075447819322,-4.547318771954405,-10.61460532000012,-4.812616285459081,-1.812
-15.18234438429876,-3.6665059177196064,-8.079918264578065,-6.817227169177448,-6.296532127722407,-3.8601032756252636,-10.045110388717076,-4.543957889362809,-1.808
-14.340086510013077,-2.860925537051694,-7.16095515839014,-6.369486288594938,-5.518415605193082,-3.304423533927581,-9.546468211109339,-4.306628722855219,-1.804
-13.529858074041394,-2.1853846545167737,-6.295773038420773,-5.950819026816812,-4.866579040321478,-2.915979379282165,-9.14889998147585,-4.1243932195042206,-1.8
-12.778687571942829,-1.659636447543836,-5.510928865194974,-5.578814668836991,-4.367673244392111,-2.718938601519172,-8.875291164471538,-4.015974447197269,-1.796
-12.108105741825057,-1.2932024143556577,-4.826332031224954,-5.265689079434836,-4.037486583373468,-2.7244125724511172,-8.739711931597068,-3.9936351429829218,-1.792
-11.533401086429388,-1.085457270940053,-4.254648317318718,-5.017917556500089,-3.880300381446125,-2.9301042406587423,-8.746770694721462,-4.062524891315819,-1.788
-11.063402386819899,-1.0265462072047264,-3.8013162689920392,-4.836367011943533,-3.889211910993978,-3.3210354078502236,-8.891735551139686,-4.220737093040267,-1.784
-10.70069131318327,-1.0989316529961939,-3.4650583528085437,-4.716814652759844,-4.047293057162317,-3.871165782726768,-9.161305925823434,-4.459958828866167,-1.78
-10.442143247066944,-1.2793376063192814,-3.238754509198806,-4.650747573732685,-4.3294018300160015,-4.5456718529991464,-9.534899560278362,-4.766568949060012,-1.776
-10.27970793363722,-1.540870816255786,-3.1105564256134275,-4.6263599271130165,-4.704441747306706,-5.30365008068961,-9.986318816918402,-5.123030054416111,-1.772
-10.20137074862187,-1.8551478571718092,-3.0651550897846023,-4.629694347857307,-5.137875498576123,-6.101040458763599,-10.485671603569024,-5.509431233037404,-1.768
-10.192273008003562,-2.1943289215518083,-3.0851593902870156,-4.6459024196368635,-5.594335853154669,-6.89361404100865,-11.0014427159538,-5.905069404553186,-1.764
-10.235993857146712,-2.5330177736133304,-3.152572107479275,-4.660607428053245,-6.040212398853413,-7.639903177366279,-11.502629191655213,-6.289991936823942,-1.76
-10.315982468026336,-2.8499997816726474,-3.2503365915460756,-4.661326651553039,-6.446101073519478,-8.303955227778637,-11.960852794451386,-6.646440396620375,-1.756
-10.417069392717785,-3.1297479177101253,-3.3638688691961245,-4.6388506685831565,-6.788975743874871,-8.857756916025536,-12.35233372025423,-6.960122015369964,-1.752
-10.526901309502488,-3.3635566274656203,-3.482412060487979,-4.588408519727979,-7.053896245883892,-9.283129029782884,-12.659561414730213,-7.221200232374592,-1.748
-10.637082517516294,-3.550117904339855,-3.600001727688823,-4.510414797946959,-7.235047733955096,-9.572871750626483,-12.872467019494003,-7.424872012632919,-1.744
-10.743813731451265,-3.695376535586034,-3.715851787447483,-4.410631521947035,-7.335948418873649,-9.730983833890773,-12.988927499214695,-7.571424237521618,-1.74
-10.84789804491071,-3.811594664386442,-3.8340594807221784,-4.299674507760929,-7.368765733075017,-9.771883945156441,-13.014521672923408,-7.665740408279201,-1.736
-10.954100073240179,-3.9156840669443755,-3.9626468706448588,-4.19190658635734,-7.352807569140602,-9.718697344814622,-12.961579147045331,-7.716329291067347,-1.732
-11.069956754617108,-4.02698607107061,-4.112065619684595,-4.103849607869939,-7.312363997971836,-9.600795488756255,-12.847667349446496,-7.734025155554981,-1.728
-11.204227503901198,-4.164769847720438,-4.293374383264347,-4.052306112130349,-7.274147345464847,-9.450864738931191,-12.693725120956888,-7.73054535457661,-1.724
-11.365232521938932,-4.345771036110394,-4.516352180545483,-4.052419696645331,-7.264616542006706,-9.301825879759837,-12.522076292971878,-7.717094482702265,-1.72
-11.559351279678932,-4.582095146606735,-4.787828392353451,-4.11592008509087,-7.307475916577546,-9.183925558581468,-12.354549824730388,-7.703188709932848,-1.716
-11.789924029549798,-4.879755121306063,-5.110476317732116,-4.249781152537732,-7.421603240552367,-9.122273375706438,-12.210894633653101,-7.695841218486145,-1.712
-12.056714646297085,-5.238004920281245,-5.482229749019502,-4.455457569442762,-7.619586715740429,-9.135014737455696,-12.10760946507087,-7.699195543184895,-1.708
-12.355969403592118,-5.6494929839677965,-5.896357142464167,-4.728762121928096,-7.906947373506821,-9.232229449562656,-12.057219284007367,-7.714614600749357,-1.704
-12.680976423931748,-6.101123381454737,-6.342097886156339,-5.0603240425051785,-8.282014660980456,-9.415549979112022,-12.067937997460799,-7.741138148521846,-1.7
-13.022935099875681,-6.575413580955805,-6.805669678878038,-5.436468828464606,-8.736338667559803,-9.678420509556606,-12.143594384722665,-7.776141505564748,-1.696
-13.371914397621671,-7.052100817038307,-7.271424939521108,-5.840318777129596,-9.255485711606806,-10.006881805368842,-12.283692336503666,-7.816002120165516,-1.692
-13.71771883488436,-7.50977648658105,-7.722971219211763,-6.25294058555787,-9.82007788628322,-10.380768048810381,-12.483528673403676,-7.8566223661941805,-1.688
-14.050567952019517,-7.927399173815331,-8.144151991811926,-6.654439840257552,-10.406983943625791,-10.775224993251754,-12.734370873362481,-7.8937432687366496,-1.684
-14.361586522473175,-8.285615129587994,-8.51986882042641,-7.024980627616841,-10.990617397506496,-11.16247661421373,-13.023757057780232,-7.9230679340967605,-1.68
-14.643159107974872,-8.567865751728089,-8.836776679796559,-7.345754399073834,-11.544319352282342,-11.51375724210784,-13.33598942730874,-7.940258636696143,-1.676
-14.889214954372951,-8.761277653195483,-9.083893606078302,-7.599927346338574,-12.041795896197694,-11.8012943887689,-13.652857845324315,-7.940880304003094,-1.672
-15.095496679401395,-8.857332850847198,-9.253153426171352,-7.773578139325847,-12.458565516244626,-12.000206083437371,-13.954589746966505,-7.920364751018257,-1.668
-15.259842768401418,-8.852320201294262,-9.33991043959635,-7.856611730279479,-12.773364592397181,-12.090185336216118,-14.220997391354443,-7.874074611931924,-1.664
-15.382477755978716,-8.74756911001023,-9.343375579929482,-7.8435997965770206,-12.96945007428506,-12.056873155214287,-14.432773277574993,-7.797534087306733,-1.66
-15.466260659292892,-8.549457130959558,-9.266929283382138,-7.734462446546896,-13.035722833182513,-11.892851800364841,-14.572858459016699,-7.686854275276492,-1.6560000000000001
-15.516811603527154,-8.269171879624485,-9.11823485465216,-7.5348890331147,-12.967583395782299,-11.598211501451738,-14.627781780297452,-7.539327913615731,-1.6520000000000001
-15.542431897505516,-7.922203655381583,-8.90907813662601,-7.256406223152421,-12.767432244958929,-11.180653191454311,-14.588846887931904,-7.354117548177722,-1.6480000000000001
-15.553752551069786,-7.527552654412926,-8.654881358023651,-6.916029329793318,-12.444739411941114,-10.655094312927405,-14.453032368899047,-7.132920110223992,-1.6440000000000001
-15.563087451059705,-7.106659645345513,-8.373877941071262,-6.535471399209283,-12.015635678081638,-10.042765320045898,-14.223480981831171,-6.880471689520878,-1.6400000000000001
-15.583529664418272,-6.682115765905786,-8.08599152278021,-6.139936700311149,-11.502026534004148,-9.369837241764255,-13.909498473157468,-6.604771927577014,-1.6360000000000001
-15.627898857994456,-6.276263637266896,-7.811526028501649,-5.756586702747347,-10.930293192971352,-8.66569450000355,-13.526052252511843,-6.316953742308359,-1.6320000000000001
-15.707692260925505,-5.909838826851811,-7.569817243384066,-5.41281544067279,-10.329698654726107,-7.961027835877498,-13.092828759752733,-6.030781552529584,-1.6280000000000001
-15.83218614292666,-5.600795531815975,-7.3779983955506925,-5.134487500939198,-9.730641963318654,-7.285943186393318,-12.632956553374097,-5.761816064921744,-1.624
-16.007787197560152,-5.363418853168756,-7.2499974228052615,-4.9442782823288125,-9.162902129932155,-6.66826424156553,-12.17152912788457,-5.526332594557813,-1.62
-16.237671964239315,-5.2077710758332145,-7.195832807872292,-4.860228511807447,-8.653995720299063,-6.1321630537775995,-11.734069294681204,-5.340115191879093,-1.616
-16.52170025482002,-5.139469676133774,-7.221225779592955,-4.894594534955438,-8.227745225574065,-5.697194486084085,-11.345061701292462,-5.217258330288367,-1.612
-16.8565543788533,-5.159758421867388,-7.327508383125423,-5.053046937607208,-7.903123142131802,-5.377744051700299,-11.026641417163198,-5.169088610284817,-1.608
-17.236039510801774,-5.2658103712040205,-7.511781931449654,-5.334244493709592,-7.693404762096562,-5.182835229281541,-10.797474025949873,-5.203280117639672,-1.604
-17.65147726815745,-5.4511901276368295,-7.767266891761983,-5.729789116234403,-7.605636423663738,-5.116195172375537,-10.671813848287304,-5.3231940841546255,-1.6
-18.092129952965927,-5.706400866141475,-8.083780845985983,-6.22455001153161,-7.640408746743043,-5.176460747304267,-10.658703160688813,-5.527442183954442,-1.596
-18.545605648603594,-6.01945004491855,-8.448285210397684,-6.797331030677042,-7.7919170452670965,-5.357427376838334,-10.761290878974844,-5.809663611734745,-1.592
-18.998216417333097,-6.376387381949146,-8.845455936659192,-7.421846330277577,-8.048293623641516,-5.648295830497936,-10.97629919627677,-6.1585208019859685,-1.588
-19.43529306498264,-6.761797923704664,-9.258259337532733,-8.067968576909935,-8.392207237490338,-6.033938901754329,-11.293726812514436,-6.557948204076233,-1.584
-19.841492122101396,-7.159264917844997,-9.668544524293582,-8.703217088153977,-8.801735950036491,-6.495266847981968,-11.696916731178787,-6.987712338840298,-1.58
-20.20115029858261,-7.551841173215356,-10.057684641062213,-9.294449672133322,-9.25151941396783,-7.009796894950725,-12.163113326438358,-7.424337828772305,-1.576
-20.498737902203192,-7.9225730668800995,-10.40729774644358,-9.809702282090786,-9.714176795218673,-7.552516035644788,-12.664582287425853,-7.842415284829226,-1.572
-20.719433141184474,-8.255101867253545,-10.700051540230893,-10.220084027281512,-10.161935429966608,-8.097066985768041,-13.17027798264102,-8.216240752341008,-1.568
-20.849794248258213,-8.534328083271168,-10.92051435931616,-10.501592492045663,-10.5683621435229,-8.617201738338295,-13.647939475676857,-8.521661100276257,-1.564
-20.878468674364495,-8.747087087465195,-11.055980915758719,-10.63668844886087,-10.91004703702914,-9.08837149926695,-14.066412492574438,-8.73793988085157,-1.56
-20.796868404227233,-8.882770656962089,-11.097195949574868,-10.615481154201767,-11.168082288272442,-9.489288395965081,-14.39795672814482,-8.849436292142851,-1.556
-20.59975512636207,-8.933839930161344,-11.038918806011463,-10.436422589112263,-11.329206785996973,-9.803303726724762,-14.620306994845734,-8.8469112908575,-1.552
-20.285693194600746,-8.896186863521782,-10.880288599321986,-10.10646108455903,-11.386525140158692,-10.019469371651972,-14.718290848521965,-8.728321733136749,-1.548
-19.85732154713476,-8.769294920365798,-10.62494220708454,-9.640634781853269,-11.339733415351745,-10.133159103877341,-14.684843860324529,-8.499011812593,-1.544
-19.321376990975523,-8.556138623111186,-10.280820474363935,-9.061099292476872,-11.194801048067308,-10.14613655910243,-14.521307236592781,-8.171255350127844,-1.54
-18.68840181016192,-8.262778894171152,-9.85960894926103,-8.395611977542432,-10.963096987081151,-10.06600016860969,-14.236957110317988,-7.7631561264393545,-1.536
-17.972114305075205,-7.897675679794578,-9.375822062728634,-7.675559659899346,-10.66002575602686,-9.905030006693982,-13.847811328181088,-7.296990491623307,-1.532
-17.188508446350788,-7.47083549359396,-8.845641730458588,-6.933709777505545,-10.303343578925897,-9.678587567475846,-13.374877277763398,-6.7971743862236735,-1.528
-16.354840163326678,-6.9929923127131,-8.285715982049052,-6.201948211799757,-9.911414198493677,-9.403328072435286,-12.842106500547123,-6.288125301978118,-1.524
-15.48870110650002,-6.4750332535411985,-7.7121543931310015,-5.509291031235935,-9.501688045229907,-9.095525721249496,-12.274360727156115,-5.7923188566418204,-1.52
-14.60734976306159,-5.927806366322645,-7.139900055669901,-4.880399207353538,-9.089624234012375,-8.769765408183579,-11.695646404070674,-5.328780475419119,-1.516
-13.727382342164235,-5.3623191960571095,-6.582539267437961,-4.334707986710708,-8.688149090237744,-8.43814371981552,-11.127766471552988,-4.912130450226229,-1.512
-12.864722438577491,-4.7902121694112125,-6.052484839398786,-3.8861544944655666,-8.307612998338845,-8.109996414425073,-10.589423576271017,-4.5521755338086045,-1.508
-12.034821235787097,-4.224312740492954,-5.561379630190887,-3.5433869825089186,-7.956112725436277,-7.792068963203231,-10.095728426710437,-4.2539572707428555,-1.504
-11.252906347276257,-3.679056751265829,-5.120529832693649,-3.31028436793203,-7.6400035916812294,-7.488987155447383,-9.658029792078908,-4.018135890315515,-1.5
-10.53410912631543,-3.1705983306967083,-4.741192682063873,-3.186609754699636,-7.3644313130978185,-7.203866844849443,-9.28397843881196,-3.841596595645184,-1.496
-9.893340622657266,-2.716505933408636,-4.434600429054835,-3.1686594105564065,-7.133754247803779,-6.938918720354998,-8.977749696678995,-3.7181916427841184,-1.492
-9.344861223087076,-2.3350374253767745,-4.211680541586716,-3.2498288560642044,-6.951784284847853,-6.695943852984339,-8.740366186027305,-3.6395557624793646,-1.488
-8.901570307175955,-2.0440743025683537,-4.082504493457412,-3.4210745178027935,-6.821829679197755,-6.476664877132073,-8.570079723543593,-3.5959447005082694,-1.484
-8.574100613456864,-1.8598499663209047,-4.055541458406092,-3.671282147668865,-6.746560205639384,-6.282878956841836,-8.462784305471517,-3.57704831306636,-1.48
-8.369825138101683,-1.7956205550425484,-4.136803944669639,-3.987558401857035,-6.727728952846518,-6.116439707793919,-8.412433530520108,-3.572726737550836,-1.476
-8.291888081924897,-1.8604159885548652,-4.3289709646173,-4.355459861594545,-6.765790394382806,-5.97908438872159,-8.411433813397952,-3.5736233353991516,-1.472
-8.338375234615194,-2.0579957502388204,-4.630582194415809,-4.75918446645897,-6.859467737694404,-5.872136444485072,-8.450992681103257,-3.57162859814005,-1.468
-8.501732681397186,-2.386112734357063,-5.035401514903699,-5.181761883997493,-7.005332935657252,-5.796124508377343,-8.521410193433518,-3.5601865095443657,-1.464
-8.768505408041456,-2.836141660807238,-5.5320252368253655,-5.605267934920125,-7.197448474542902,-5.750348945969189,-8.612294713310183,-3.534426560872733,-1.46
-9.11941657470574,-3.3930724216929593,-6.10377093822486,-6.011065178980044,-7.427093719367535,-5.732410017147545,-8.712677741710992,-3.4910867917988675,-1.456
-9.52978716137956,-4.035845705736186,-6.7288675838593655,-6.380074781810025,-7.682598768512184,-5.737725644614601,-8.81103003559738,-3.428207914132022,-1.452
-9.970316856867903,-4.738033308629793,-7.380990433808963,-6.693124838562398,-7.949347352846759,-5.759120423066998,-8.895244226707003,-3.3446404693942346,-1.448
-10.408275398902294,-5.468905422005102,-8.030213128787029,-6.931464332339498,-8.21005394260694,-5.7866238223783295,-8.952708587455454,-3.239484031698691,-1.444
-10.809141072674876,-6.194930110302106,-8.644437082764883,-7.077533364707402,-8.44542081390327,-5.807625072613684,-8.970607568146686,-3.1116186819977516,-1.44
-11.138649917331927,-6.881689245156254,-9.191283080599264,-7.116017647893657,-8.635215955629334,-5.807473276242755,-8.936530376459805,-2.959465069402964,-1.436
-11.365112762799562,-7.496093831350727,-9.64031666761077,-7.035111878137517,-8.759706365504186,-5.770507977552905,-8.839373684322021,-2.7810359923104517,-1.432
-11.46177117880141,-8.008694650845955,-9.965381257682521,-6.82782459108194,-8.801285161063024,-5.681407002185392,-8.670434154508373,-2.5742616961013347,-1.428
-11.408930181053035,-8.395846715327224,-10.146767042396302,-6.493112743766616,-8.746079458570566,-5.526675259006507,-8.424527464776718,-2.3375095817913216,-1.424
-11.195621553951087,-8.641495838206787,-10.17295107971938,-6.036639677818933,-8.58532147233698,-5.296072012922171,-8.100944444985092,-2.0701802578470794,-1.42
-10.820607976597874,-8.738402544387691,-10.041697658707914,-5.470998676929408,-8.316304002265115,-4.983787652946106,-7.704067606565328,-1.773253455057401,-1.416
-10.29263292150279,-8.688699432898789,-9.760405499361507,-4.815334065315151,-7.942822688817019,-4.5892421311895,-7.2435333081945865,-1.4496911916695687,-1.412
-9.629934320871408,-8.503775113131256,-9.34570758572939,-4.0944022108876075,-7.475108773720811,-4.117467341457851,-6.733918875949486,-1.1046661172755217,-1.408
-8.859126870322456,-8.203551649758316,-8.822423645369138,-3.337199097343848,-6.92932960972347,-3.57910637657705,-6.194013462898081,-0.7456250731429499,-1.404
-8.013588799708316,-7.815246473743747,-8.22200137110892,-2.5753048696612986,-6.326747839719225,-2.9900801396265617,-5.645763608090587,-0.3821930769962023,-1.4
-7.131481828758785,-7.37170135787157,-7.5805762373398,-1.841075245672401,-5.692604508473064,-2.3709516588469546,-5.112982019907037,-0.025894646997022264,-1.396
-6.253532077061388,-6.9093634484373325,-6.9367766714480394,-1.1657934903983933,-5.05477677668739,-1.7460044726109496,-4.619907179062004,0.3103334770515511,-1.392
-5.420725578437408,-6.466038057024187,-6.3294251837956015,-0.5779109964105071,-4.442282733882387,-1.1420683065658945,-4.189718494476066,0.6128224495767256,-1.388
-4.672106502391296,-6.078584239387055,-5.7953212483214696,-0.10153295128526274,-3.8837479903430765,-0.5871647431728144,-3.8431357225789524,0.8679657200741691,-1.384
-4.042876374678167,-5.780760558043244,-5.367306784243505,0.24468647267878474,-3.405980043776745,-0.10908577476460746,-3.59724392229593,1.063002052392891,-1.38
-3.562952233693201,-5.60141959958186,-5.072783204388158,0.44811627380668817,-3.0327895249046737,0.2659666559488407,-3.464669098452603,1.1866594826279133,-1.376
-3.2560460007600747,-5.563180833354426,-4.932762233437994,0.5021618957657776,-2.784139446348627,0.514582311741262,-3.4531723063577884,1.2295870502008386,-1.3719999999999999
-3.1392116355739774,-5.681606460514132,-4.961421370473663,0.40581115410144175,-2.6756161697877046,0.617151359335204,-3.5656447254237404,1.1845870992992404,-1.3679999999999999
-3.222731140883497,-5.96482033094661,-5.166055498607657,0.16288222955759757,-2.71814892697346,0.558697474175851,-3.800414744433568,1.046724832235813,-1.3639999999999999
-3.5102059592948205,-6.413482069279965,-5.547299542182528,-0.21885036189710627,-2.917889211327222,0.3295614354328613,-4.151751029811166,0.8134006827722935,-1.3599999999999999
-3.9987633143617125,-7.021043496970066,-6.099523209217745,-0.7285166742218339,-3.276182378766916,-0.07405878581261405,-4.610454843331236,0.48444088699337406,-1.3559999999999999
-4.6793360769660834,-7.774237969574612,-6.8113308570546565,-1.3529092264872284,-3.7895903546555925,-0.6497251809789066,-5.164455784115218,0.062227027514982325,-1.3519999999999999
-5.537011989620266,-8.653769669249975,-7.66612402561659,-2.077082801427051,-4.449946625489279,-1.3885597598771096,-5.799349055031688,-0.4481409408763497,-1.3479999999999999
-6.551479101021986,-9.635184437895303,-8.642710896878814,-2.884779185366742,-5.24445290258747,-2.275267594173158,-6.498847471096878,-1.0386815339617765,-1.3439999999999999
-7.697621371533636,-10.6899205219139,-9.715981263734799,-3.758710103050812,-6.155864151172837,-3.288441411453741,-7.245168382184012,-1.6984359352658416,-1.3399999999999999
-8.946328019860644,-11.786546809693835,-10.8576931931348,-4.680776703682711,-7.162837033830003,-4.401211181817974,-8.019414409453976,-2.4135311829440393,-1.3359999999999999
-10.265556140845595,-12.892182272538967,-12.037416032064158,-5.632315340054475,-8.240511356669348,-5.5822727978724505,-8.802012444556894,-3.1674840857878523,-1.3319999999999999
-11.621628391298565,-13.974048679582529,-13.223635312251389,-6.594425623100669,-9.361347985885622,-6.79726585044497,-9.5732424615851,-3.9417758918034176,-1.3279999999999998
-12.980678376164754,-15.001055493071147,-14.384966072525465,-7.548377950826287,-10.496182090468581,-8.010397963545765,-10.313837557892048,-4.716654847214699,-1.3239999999999998
-14.310112332419287,-15.945284348672402,-15.491379214300293,-8.476055930076564,-11.61540700323441,-9.186170624452101,-11.005604282096508,-5.472070769686213,-1.3199999999999998
-15.579963993620511,-16.78325751437849,-16.515350458036202,-9.360396044062176,-12.690208369351174,-10.291072174240018,-11.6320222641314,-6.188645515696645,-1.3159999999999998
-16.764069909697067,-17.496931502030705,-17.432885369333743,-10.185830870431078,-13.693807005609365,-11.295153065323042,-12.178823225764784,-6.848626829159547,-1.312
-17.841041309931406,-18.074411497787924,-18.224414678311497,-10.938774790419204,-14.602696440923811,-12.17344276632002,-12.634577906654048,-7.436811393301067,-1.308
-18.795022173206615,-18.510400183623414,-18.875558076960886,-11.608176571374536,-15.397845565276217,-12.907174520106137,-12.991302547329953,-7.941417027155702,-1.304
-19.6162069181045,-18.806378823684376,-19.37772664055479,-12.186110669387508,-16.06578945567547,-13.484759414143216,-13.245046168840151,-8.354845473349739,-1.3
-20.301069809882236,-18.970493145420274,-19.72850040070273,-12.668322660748709,-16.59948607880099,-13.902420861837923,-13.396371506817749,-8.674245115927874,-1.296
-20.852247360634355,-19.017098422794504,-19.931697059572837,-13.054608153203672,-16.998795724629844,-14.164382992074337,-13.450615918457606,-8.901775725240633,-1.292
-21.278021934129328,-18.965915296964273,-19.997048438798082,-13.348898060512575,-17.27045096507548,-14.282512298068719,-13.417815984564626,-9.04448885327538,-1.288
-21.59139051099425,-18.840772571230836,-19.939433431381516,-13.558954468215308,-17.42743494828258,-14.275356119093217,-13.312209282167526,-9.113769654497016,-1.284
-21.808774335432627,-18.667977829657858,-19.777688994426487,-13.695656635462296,-17.487780342130694,-14.166613480990355,-13.151301174757151,-9.124353387983462,-1.28
-21.9485114830101,-18.474446280036275,-19.533115858170753,-13.771956166722573,-17.472917839048478,-13.983188507366677,-12.954584756340049,-9.09302176806362,-1.276
-22.029322437461573,-18.285781357277155,-19.227860734912483,-13.801651538192257,-17.405785445055542,-13.75305403020865,-12.742072126389276,-9.037148358944668,-1.272
-22.068913046615307,-18.124496490518425,-18.88335289639629,-13.798136646924574,-17.308916803206337,-13.503153273225035,-12.532797900330841,-8.973258346723561,-1.268
-22.082810986889015,-18.0085183687743,-18.518925334236673,-13.773241604528101,-17.20268368021879,-13.257518998647535,-12.343421746208286,-8.915724002936964,-1.264
-22.083487733095925,-17.950076215378914,-18.150719069602076,-13.736265569866813,-17.10383412751936,-13.03575108901691,-12.187041639277215,-8.875692822637497,-1.26
-22.079820270510446,-17.955076666356657,-17.79097065533353,-13.693316424655087,-17.024460989030317,-12.851978330098627,-12.072339024116058,-8.860352611003776,-1.256
-22.076956889157543,-18.023052253315278,-17.447778317873386,-13.64707942116772,-16.971518465862776,-12.714402054914803,-12.003169843356506,-8.872635053354308,-1.252
-22.07662418050021,-18.147713777261938,-17.125389933446236,-13.597091537695634,-16.946939957461538,-12.625449051598789,-11.978661940232133,-8.911410911718926,-1.248
-22.077837028663712,-18.318031866479995,-16.82495199633414,-13.540491215087792,-16.948298218783087,-12.58245614212957,-11.99378580647197,-8.972138583344458,-1.244
-22.07787667356876,-18.519659264990715,-16.545539344426725,-13.473079792171134,-16.969827899312797,-12.57870747754249,-12.040264706811886,-9.047826488301355,-1.24
-22.073334147851174,-18.736441410344497,-16.285211396153628,-13.39043880870853,-17.003561279493386,-12.604599653358603,-12.107629724100347,-9.130106728258728,-1.236
-22.061020042522006,-18.951788970670457,-16.04185926040688,-13.288853809084666,-17.040353823038917,-12.648749870804558,-12.184240969736447,-9.210229772636104,-1.232
-22.038615971330106,-19.149789398908514,-15.813713526232474,-13.165899273213324,-17.070684995686218,-12.698966609207403,-12.258178313441071,-9.279872663261186,-1.228
-22.00504380224002,-19.316056168920014,-15.599518279544126,-13.020680199443955,-17.08524938592873,-12.743107829327675,-12.318001150846055,-9.331757339305383,-1.224
-21.960605608732102,-19.43839450556632,-15.398480440030385,-12.853833305599007,-17.07543872937408,-12.769903589056312,-12.353434920984949,-9.360145574947937,-1.22
-21.906977900193922,-19.507377410957734,-15.210144241022077,-12.667429432079718,-17.033830248237326,-12.769805949212866,-12.356045629718299,-9.361288995458231,-1.216
-21.847130574819964,-19.516885173290902,-15.034318369305087,-12.464889574337672,-16.954749749910565,-12.735869660428106,-12.319923227534282,-9.33387444441397,-1.212
-21.785196577015252,-19.46458889033387,-14.871112654696853,-12.250950425506208,-16.834892580401608,-12.66458835654197,-12.242326097787661,-9.279435294351607,-1.208
-21.72626499738297,-19.35228530169455,-14.721051667596459,-12.03162651950528,-16.673894636743,-12.556539792951277,-12.124165805660983,-9.20262501316444,-1.204
-21.676039142050648,-19.185950825657013,-14.58516482149699,-11.814057359567078,-16.474689133930834,-12.416661235173652,-11.970171395978348,-9.11120739131286,-1.2
-21.640312022387693,-18.97539814300672,-14.464936893485183,-11.606127149711497,-16.243491127890405,-12.254004209681884,-11.788596897263243,-9.01563779060924,-1.196
-21.62426420883628,-18.733489038031085,-14.36204595847604,-11.415805002149211,-15.989324358155761,-12.080907249779695,-11.590425730805856,-8.92819479886119,-1.192
-21.63166734808092,-18.47496556539282,-14.277903340780158,-11.250256643213373,-15.723123334864997,-11.911656238153931,-11.388152527849137,-8.861745073304757,-1.188
-21.66414696265123,-18.21506875167204,-14.21310379290647,-11.114881520971224,-15.456562227610332,-11.760830393044607,-11.194335459819712,-8.828333952478108,-1.1840000000000002
-21.72067135144549,-17.96816302371516,-14.166937001570936,-11.012472156066805,-15.200821506907916,-11.6415981149106,-11.020156849324865,-8.83783460304005,-1.1800000000000002
-21.79736534548845,-17.746544911382248,-14.137072588147063,-10.942646050802171,-14.965475080707272,-11.564200419535656,-10.874190093847274,-8.896842417143546,-1.1760000000000002
-21.88763884727783,-17.559523570671338,-14.11944537186189,-10.901604321851565,-14.757603603162982,-11.534777540069284,-10.761491152555982,-9.007915302552327,-1.1720000000000002
-21.982547624997075,-17.412793248485336,-14.108309307564408,-10.882202164312844,-14.581185328387187,-11.554628604440083,-10.68307968224426,-9.169203198522595,-1.1680000000000001
-22.071305812888063,-17.308110016537128,-14.096433868107546,-10.874311191492417,-14.436813876145177,-11.61997638963796,-10.635868889342522,-9.374504158517368,-1.1640000000000001
-22.141914181883926,-17.24330578224407,-14.075455167711626,-10.865480723514601,-14.321806231859934,-11.722303530976411,-10.613102149742005,-9.613789457972304,-1.1600000000000001
-22.1818979752059,-17.212669161132766,-14.03641055467958,-10.841908091514908,-14.23074129797058,-11.849281599500053,-10.605306672072157,-9.874203778231934,-1.1560000000000001
-22.179136156238695,-17.20767612687988,-13.970454986428408,-10.789682951215685,-14.156395923082078,-11.986220507275798,-10.601676179638934,-10.141459343819381,-1.1520000000000001
-22.122728332188203,-17.217989181399986,-13.869701276408684,-10.696200460354074,-14.090956978173455,-12.117861953889701,-10.591694967009962,-10.401449189307318,-1.1480000000000001
-22.003822212618783,-17.232603076869385,-13.728084606282152,-10.551585677436384,-14.02733379182699,-12.230277870970282,-10.566770982814965,-10.641862014034796,-1.1440000000000001
-21.816327000337115,-17.241011817197336,-13.542142475937016,-10.349957432001116,-13.960391270550305,-12.312630838014913,-10.521665603094597,-10.853603751987407,-1.1400000000000001
-21.557446060368704,-17.234280142926487,-13.31160585684269,-10.090368556954024,-13.8879423666758,-12.35858181078883,-10.455549619513318,-11.03187770841842,-1.1360000000000001
-21.227956309643282,-17.20589720256954,-13.039695582643445,-9.777271741623554,-13.811349997817242,-12.367160658047661,-10.372538710094375,-11.1768026020298,-1.1320000000000001
-20.8321617230504,-17.152288371506025,-12.733026964721262,-9.420390829948875,-13.735607114993723,-12.342956726746246,-10.281583597612666,-11.293466301588422,-1.1280000000000001
-20.3774909933113,-17.072904551770044,-12.401079479245505,-9.033955984203663,-13.66882737670945,-12.295573302498891,-10.195659735591903,-11.39136777688116,-1.124
-19.873792695799132,-16.969900678219005,-12.055284101079973,-8.635381243997069,-13.621190706434032,-12.238420460356512,-10.130328967624123,-11.483304092997363,-1.12
-19.332456905737175,-16.84750874598244,-11.707870282748175,-8.2435733836766,-13.603500814122851,-12.187044603026724,-10.101877888836297,-11.583869106857307,-1.116
-18.765515170353964,-16.7112550876734,-11.370652466927083,-7.877112504609769,-13.625573919919967,-12.15725464459466,-10.12530782403253,-11.707786737759998,-1.112
-18.184836090108895,-16.567155051252264,-11.053914903091817,-7.552527419605482,-13.694673498863436,-12.163287787441705,-10.212434282552653,-11.868280817122793,-1.108
-17.60146718555569,-16.420961928000025,-10.765494500098134,-7.2828244326599565,-13.814152819216822,-12.216185712105473,-10.370274255422808,-12.075609738517477,-1.104
-17.02511149073532,-16.27748773918112,-10.510097530056834,-7.0763515718533085,-13.982401315965301,-12.322470836879644,-10.599811398612063,-12.335820266879784,-1.1
-16.463706220269554,-16.139993888356877,-10.28885535754325,-6.9360310087496515,-14.19215433313604,-12.483172796512301,-10.89518640034078,-12.649751087567038,-1.096
-15.923107744489961,-16.00969097390714,-10.099147147170942,-6.858993923703058,-14.430239096700797,-12.693278512101108,-11.243379489170868,-13.012353683373897,-1.092
-15.406950594524286,-15.885453748732631,-9.934763091178482,-6.836681649006892,-14.677860572203192,-12.941722886006735,-11.624487869395297,-13.412448506538967,-1.088
-14.916772204424788,-15.763875956529128,-9.786484257448706,-6.855474865385265,-14.911513838707894,-13.212024802657504,-12.012681057433394,-13.833028645782433,-1.084
-14.452447041749014,-15.639728554288176,-9.643086568073157,-6.897848722645918,-15.104521348958,-13.483579969977715,-12.377825557611667,-14.252144689825403,-1.08
-14.012894861460877,-15.50679211839433,-9.492684489980018,-6.943965940630212,-15.229086503539467,-13.733506608374585,-12.687668146442903,-14.644313849854061,-1.076
-13.596977748425772,-15.358973708432487,-9.324277297783064,-6.97356845572455,-15.258691841206062,-13.938867917324625,-12.910413383716485,-14.982355691434018,-1.072
-13.20448390166062,-15.19159199810946,-9.129349031528129,-6.968011580659599,-15.170648246781719,-14.07906467863813,-13.017511398282297,-15.239550215752962,-1.068
-12.83707903624119,-15.002684706912662,-8.903363458678818,-6.912267049939074,-14.948578414964937,-14.138163568231572,-12.98643690289762,-15.391981719455245,-1.064
-12.499082808199173,-14.794153377019459,-8.646976704423011,-6.796696647159931,-14.584584741016869,-14.106898407948108,-12.803186643738774,-15.420862264933955,-1.06
-12.197924182342486,-14.57254266608349,-8.36678688317625,-6.618392459208931,-14.08083974883338,-13.98408357150786,-12.464194555666516,-15.314569415390613,-1.056
-11.944160625293662,-14.349275318471328,-8.07546828991015,-6.381906317405673,-13.450368277062292,-13.777227386689127,-11.977393782059806,-15.070126402129365,-1.052
-11.751003802024442,-14.140228789265691,-7.791196075491291,-6.099243324585726,-12.716864329190425,-13.502222460110287,-11.362241667725499,-14.693906243677914,-1.048
-11.633370849318664,-13.964640016023791,-7.536355246320245,-5.789071619858906,-11.913496959173816,-13.182111363644486,-10.648656239594864,-14.201446862903577,-1.044
-11.606565862629402,-13.84344794591482,-7.335639380865061,-5.475202785915826,-11.0807960059422,-12.84506335998454,-9.874968501232022,-13.616403049959466,-1.04
-11.684765660891475,-13.797293612375807,-7.213750397401386,-5.184502316533404,-10.263834392504936,-12.521811922298571,-9.085128221489146,-12.968790025262614,-1.036
-11.879509850660082,-13.84445502222469,-7.192974399348417,-4.9444637678090295,-9.509000915559863,-12.242858574034784,-8.325468365120479,-12.292747883089067,-1.032
-12.198377960764098,-13.998990019539093,-7.290920471197159,-4.7807132167157205,-8.860680452528783,-12.035749482861524,-7.641337843427745,-11.624072620657346,-1.028
-12.643998726015539,-14.269314820365397,-7.518684444319037,-4.714714010350018,-8.358146693932774,-11.922703018287704,-7.073890791245909,-10.997747091295611,-1.024
-13.213490067434197,-14.657374146971932,-7.879644787659883,-4.761915782974145,-8.032932099046521,-11.918815002492792,-6.657289074176377,-10.44567927199466,-1.02
-13.898368352201638,-15.158464074602692,-8.369007709086334,-4.930523729524159,-7.9068631086623515,-12.030983975713022,-6.416519661236112,-9.994808674616278,-1.016
-14.684898491779752,-15.761667380715789,-8.97410630465198,-5.220962779807257,-7.990848837897638,-12.257593905012106,-6.365949600331088,-9.665679526249793,-1.012
-15.554806110036743,-16.450785612251224,-9.67536085775317,-5.6260138509327104,-8.2844262958135,-12.588902655274516,-6.508666010596178,-9.471526256596746,-1.008
-16.486254921493405,-17.20562087808971,-10.447752129342401,-6.13153712474033,-8.776020458506892,-13.008036023067747,-6.836599036983989,-9.417887466493678,-1.004
-17.454996222026466,-18.003461433092887,-11.26264187198193,-6.717668894191314,-9.4438625600046,-13.492470425406694,-7.331393288044777,-9.502745730796299,-1.0
-18.435599077695702,-18.820630808682658,-12.089769100609335,-7.360360438765319,-10.257492123583535,-14.015870770811034,-7.965949655141734,-9.717156955181625,-0.996
-19.402658061502184,-19.63395519703043,-12.899240139709578,-8.033103529740039,-11.179726930603241,-14.550111925498744,-8.706490881210518,-10.046275327695922,-0.992
-20.331861657309236,-20.421997404224022,-13.663322089875697,-8.708664056954511,-12.168930701308541,-15.067267486029465,-9.514932272995871,-10.470618495660794,-0.988
-21.200807621956827,-21.16591866929771,-14.357860780472311,-9.360640861698343,-13.181368701393055,-15.541336712970265,-10.351301328658838,-10.967385820021255,-0.984
-21.989481682303655,-21.84987426960651,-14.963186204834836,-9.964693605495526,-14.173437608910351,-15.949522132339549,-11.175965532972894,-11.511658602798963,-0.98
-22.680375823989248,-22.460925637784136,-15.464443982364173,-10.499346992466531,-15.103596155495179,-16.2729602089949,-11.951491185955131,-12.077373323010516,-0.976
-23.25831091652585,-22.98855434683583,-15.851399049966563,-10.94637963967918,-15.933909027690444,-16.496928313326883,-12.64405909502217,-12.63805948543747,-0.972
-23.71012755160692,-23.423971735386576,-16.117879328623644,-11.290926314089738,-16.631232945774393,-16.610679267448084,-13.224489257173646,-13.16745344639535,-0.968
-24.0244730933138,-23.759488401095478,-16.26111549976708,-11.521511677750055,-17.16817221432088,-16.607145185737217,-13.669028419313687,-13.640186291073427,-0.964
-24.19188753555819,-23.988187938697113,-16.28123021155535,-11.630229256523553,-17.52394700096494,-16.48274870389661,-13.96006396381157,-14.032727648062162,-0.96
-24.205259893932897,-24.10402350600602,-16.18101539604385,-11.613158556259586,-17.68522599848957,-16.23744402402697,-14.08682154126111,-14.324626168500956,-0.956
-24.06054866820091,-24.102280462070887,-15.965963605350785,-11.47093214900568,-17.64682994403219,-15.874941298271834,-14.045948395481792,-14.499893275483053,-0.952
-23.757538474316732,-23.98022370453981,-15.644389608862708,-11.209229298783235,-17.41211509174731,-15.40294789801377,-13.841790421277924,-14.548251189296327,-0.948
-23.300406401647635,-23.737736608063503,-15.227459509432377,-10.838956607661869,-16.99286036822047,-14.833250390113541,-13.486197134992423,-14.46597759600698,-0.944
-22.697971902616946,-23.37783448544684,-14.729019204152968,-10.375966843229811,-16.408587395602297,-14.181538505343507,-12.99780024550498,-14.256194507444285,-0.94
-21.96362279137871,-22.907021831002695,-14.165210904470348,-9.840294334590837,-15.685365344437463,-13.466965733370346,-12.400829347210728,-13.92858162854216,-0.9359999999999999
-21.114980339306257,-22.335499031987737,-13.553925009936757,-9.254983958195712,-14.854230610537943,-12.711492682263465,-11.723595334399436,-13.498581015972304,-0.9319999999999999
-20.173372753812444,-21.677205362710513,-12.914141201396829,-8.644637793747243,-13.949369379603386,-11.939058228397986,-10.996780080865827,-12.986191078509929,-0.9279999999999999
-19.163159390120953,-20.949651774950322,-12.265196403704506,-8.033817233485578,-13.006197419727853,-11.1746018321982,-10.251649831242032,-12.414456227130081,-0.9239999999999999
-18.110932594259065,-20.17349620511136,-11.62601712745989,-7.445449213452972,-12.059464915814216,-10.44295941425748,-9.518296991384823,-11.807779112801516,-0.9199999999999999
-17.044638128721875,-19.371857128852668,-11.014379071954686,-6.899400664982067,-11.141525844670152,-9.767686680756722,-8.824022624398522,-11.190218019446874,-0.9159999999999999
-15.992677868937655,-18.569418858036606,-10.446280847018105,-6.411383159799894,-10.280917296605798,-9.1699039965842,-8.191981021463624,-10.58395157449885,-0.9119999999999999
-14.983059849651823,-17.79141981713412,-9.935511107187663,-5.992309010462202,-9.501367672798217,-8.66727625305274,-7.640194910701185,-10.00806996816387,-0.9079999999999999
-14.042634736500098,-17.06262187043124,-9.493447026002622,-5.648147346763661,-8.821294013148034,-8.273230574277633,-7.181012137262094,-9.477793417334194,-0.9039999999999999
-13.196422802734906,-16.40634432802131,-9.129069241150065,-5.380250970099567,-8.253779755820617,-7.9964838027689,-6.821025120388649,-9.004151039767665,-0.8999999999999999
-12.467015098607309,-15.843625243094381,-8.849140547701712,-5.186068671508862,-7.8069684415619705,-7.840916182583228,-6.561427659730352,-8.594096167292001,-0.8959999999999999
-11.87404042280833,-15.39255755941629,-8.6584884399829,-5.060137038224705,-7.4847800206414705,-7.805800754278012,-6.398751549184793,-8.250996264313788,-0.8919999999999999
-11.43371725261399,-15.067839168872442,-8.560348615936576,-4.995252148086169,-7.287850274707145,-7.886378558011512,-6.325909877354928,-7.975415324457439,-0.8879999999999999
-11.158522098177844,-14.880553066479987,-8.556735870981566,-4.983722208049661,-7.2145844271181705,-8.074735455534617,-6.333455551763309,-7.766085207259903,-0.8839999999999999
-11.056973082499805,-14.838137092041036,-8.648783298516815,-5.018571155138342,-7.262181941782282,-8.360870733637423,-6.410921730174483,-7.620922972176079,-0.8799999999999999
-11.133470663865266,-14.944436324525824,-8.836950731284134,-5.094523139534693,-7.4274535465931155,-8.733779124086604,-6.548064274075313,-7.537914893179152,-0.8759999999999999
-11.388115453250771,-15.19971233113019,-9.121003449889347,-5.208603975864862,-7.70726646961401,-9.182352494096774,-6.735825058945218,-7.515702115306559,-0.8720000000000001
-11.816465056248829,-15.60053707049937,-9.49972526194966,-5.360269630824532,-8.09853843395448,-9.695964465242803,-6.966899442563039,-7.553782831956094,-0.8680000000000001
-12.409265171024906,-16.13958888607224,-9.970419848297727,-5.5510758123421455,-8.597814763902141,-10.264693955134812,-7.235885920331264,-7.652349444293686,-0.8640000000000001
-13.152242729500573,-16.805438607232812,-10.528317945422408,-5.78398338830005,-9.200550836118534,-10.879226150032041,-7.539070385148325,-7.811849976194829,-0.8600000000000001
-14.026057121677264,-17.582437104284413,-11.166021130402203,-6.062427593844639,-9.90025856485172,-11.530522530000061,-7.873930388152032,-8.032378585023586,-0.8560000000000001
-15.006477178289085,-18.450792755864356,-11.873081545298728,-6.389270872887499,-10.687664567025436,-12.209372149535408,-8.238444952016778,-8.312975099840436,-0.8520000000000001
-16.064807921691244,-19.38687623075889,-12.635762934299747,-6.7657303932845645,-11.54998790379326,-12.905924679017433,-8.630281245405682,-8.650878083672819,-0.8480000000000001
-17.16855907480322,-20.363742508899023,-13.436985758703878,-7.190351941773919,-12.470408146670465,-13.609277277788475,-9.045923356065872,-9.040762535960045,-0.8440000000000001
-18.282349919210613,-21.351848572804137,-14.256460276310328,-7.658120619737965,-13.42779245759834,-14.30717387451945,-9.479833311000196,-9.474026389614645,-0.8400000000000001
-19.369078198264642,-22.319972637154265,-15.071055264874735,-8.159851805504669,-14.396784417823381,-14.985892283159927,-9.923790095782431,-9.938260590671298,-0.8360000000000001
-20.39140216284698,-23.23636758779513,-15.855488150587819,-8.682041019699529,-15.348380929188005,-15.630414513285334,-10.366596036408737,-10.417092094214539,-0.8320000000000001
-21.31354618322766,-24.07015878119989,-16.583397140386413,-9.207306034028441,-16.251079462295323,-16.224951537695617,-10.794312126956672,-10.890564999777876,-0.8280000000000001
-22.103340046758234,-24.79291927032887,-17.228760789124358,-9.71542192918546,-17.072559632131064,-16.753812387153914,-11.191068965872628,-11.336110559574378,-0.8240000000000001
-22.7342968963651,-25.380272796906596,-17.767521951024925,-10.184796756422855,-17.78172989593353,-17.202510142988984,-11.540352623619382,-11.730009344376315,-0.8200000000000001
-23.187489247688564,-25.813342044156425,-18.179218071143765,-10.59414535789783,-18.350893961536286,-17.558939017295753,-11.826561415181452,-12.049146042826832,-0.8160000000000001
-23.453013318390468,-26.0798889661327,-18.448437233299178,-10.924122976425142,-18.757795142866296,-17.814453991622038,-12.036599950505037,-12.27283289782829,-0.812
-23.530905682479684,-26.175055376104893,-18.56597786956185,-11.158747839875533,-18.98735022190056,-17.964716503140426,-12.161298332352704,-12.384508939790335,-0.808
-23.4314489404531,-26.10166882616236,-18.52964680718872,-11.28652069156874,-19.032945368110084,-18.01021333025385,-12.196487709434049,-12.37316834506556,-0.804
-23.174853474179223,-25.870115693905817,-18.344664253945208,-11.30120528726308,-18.89721466550594,-17.956403068628163,-12.143619751102351,-12.234411499868914,-0.8
-22.790334048097463,-25.497804838511563,-18.023658406157907,-11.202261377830949,-18.59225695611225,-17.8134917091976,-12.009884352997927,-11.971046566839393,-0.796
-22.314620636154395,-25.00825605953429,-17.58623494641401,-10.994927762202833,-18.139270804693115,-17.595874921568583,-11.807841025831031,-11.59319672977588,-0.792
-21.789954672078817,-24.429846909649836,-17.05810270624307,-10.68994600147531,-17.567599368868528,-17.321299141055935,-11.55461479861942,-11.117883276015059,-0.788
-21.26163196238831,-23.7942452667929,-16.469735946855607,-10.302907220604371,-16.91318502617601,-17.009789256713486,-11.270714711594731,-10.56806205626318,-0.784
-20.775174893796493,-23.134558808823563,-15.85457087452523,-9.853209502538355,-16.21645515706536,-16.68238105698567,-10.97852893507312,-9.971108326111686,-0.78
-20.373259750304662,-22.48326108375672,-15.246781593583718,-9.362644503535908,-15.519711299788664,-16.359700068354453,-10.700560386903446,-9.356793322178524,-0.776
-20.092593174798235,-21.870015063578364,-14.678764226868232,-8.853696818903178,-14.864180249818453,-16.060464515882376,-10.457512458189345,-8.754887090095153,-0.772
-19.96101228011223,-21.31959713552417,-14.178563664070252,-8.34772777465017,-14.2869914564778,-15.800057578634169,-10.266412258172647,-8.192639039376374,-0.768
-19.99513960624027,-20.850187246865488,-13.767563054475946,-7.863289190248571,-13.818425614549616,-15.589373456008458,-10.139025753035765,-7.692477864009706,-0.764
-20.198911830830216,-20.472284642060565,-13.458768492518006,-7.414824113827658,-13.479782652896866,-15.434138988732487,-10.080819299140725,-7.270277209324195,-0.76
-20.56319574148548,-20.188410560758058,-13.255932241290143,-7.011934213146585,-13.282120099595808,-15.334825078005142,-10.09063208224204,-6.934430832540721,-0.756
-21.066529229038746,-19.993598245554285,-13.153592073732911,-6.659249887956751,-13.225944381469764,-15.287123028027793,-10.161076907715717,-6.685805923645502,-0.752
-21.676843433192726,-19.876514540109763,-13.137930524029798,-6.356794288854073,-13.30176730990365,-15.282837373166975,-10.279548329217143,-6.5184661983169505,-0.748
-22.35389964302288,-19.820968374011475,-13.188242774691423,-6.100649382598963,-13.491331498468602,-15.310990311757399,-10.429636504307581,-6.42093802139472,-0.744
-23.052140560544533,-19.80756284269509,-13.278774030061786,-5.883735304442738,-13.769286200927755,-15.358953694038199,-10.592734867903168,-6.37776010915189,-0.74
-23.723698185732797,-19.815321086818646,-13.380732640023298,-5.696585343502353,-14.10514164675497,-15.41349933400664,-10.749674672735672,-6.371102603427521,-0.736
-24.321375721783674,-19.823211128904312,-13.464357317951022,-5.5280881482046444,-14.465395710636603,-15.46174105431961,-10.882280417349937,-6.382320746626657,-0.732
-24.801476646381087,-19.81155446469847,-13.50096239508584,-5.366221695903198,-14.815757929934835,-15.49198328430102,-10.974770463695497,-6.393364878454268,-0.728
-25.12636674674624,-19.763304025613053,-13.464883087115435,-5.19880064898987,-15.123376501487138,-15.494476033420236,-11.01491579724357,-6.3879812469249035,-0.724
-25.266637702733863,-19.66513847987861,-13.33521193661212,-5.014221426695043,-15.35893152717667,-15.462031537934672,-10.994850494351418,-6.352633021384403,-0.72
-25.202720910747985,-19.508277446257992,-13.097188644504461,-4.8021490981277015,-15.49842832875282,-15.39042087072571,-10.911434739862436,-6.277078059787917,-0.716
-24.92580343825525,-19.288907427048066,-12.7431028615312,-4.554069499912957,-15.524529891255641,-15.27846419168554,-10.766115133038133,-6.154568897166968,-0.712
-24.43794546986958,-19.00814151807699,-12.272609930749953,-4.263644134128272,-15.427317056261886,-15.127768665416944,-10.564304301636295,-5.981691877569018,-0.708
-23.75139384851969,-18.671514942264107,-11.692442448882764,-3.9268555878247327,-15.204452467301254,-14.942147396847979,-10.314397687811587,-5.757931047155138,-0.704
-22.88720520802164,-18.288114110877203,-11.015600581873262,-3.5419958101489897,-14.860822351788146,-14.72684250128812,-10.026627721605221,-5.485106956360763,-0.7
-21.87339729400562,-17.869512746547077,-10.260187266526037,-3.109597819482361,-14.407806919851621,-14.48774192288469,-9.71199440487054,-5.166874063994168,-0.696
-20.742906757600352,-17.428719494636503,-9.448096397375153,-2.6324230694186657,-13.86236441461026,-14.230798067298235,-9.381495308269272,-4.8084485320436565,-0.692
-19.53162268507823,-16.97931146174534,-8.60374653699615,-2.1155819668018188,-13.246090799321475,-13.961804883037527,-9.045799495384617,-4.416672736430842,-0.688
-18.276679635510803,-16.534833501965508,-7.752973672198818,-1.5667830158594223,-12.584330353576508,-13.686560065606715,-8.715363472666812,-4.0003997641749205,-0.6839999999999999
-17.015065722601584,-16.108418317403903,-6.92208411114064,-0.996605244804706,-11.905293909583923,-13.411274205290999,-8.400813139141071,-3.5710331357077747,-0.6799999999999999
-15.782502487548742,-15.712500207244258,-6.136990567164434,-0.4186305208838137,-11.23906510341994,-13.142983001264607,-8.113310186709137,-3.14296394176539,-0.6759999999999999
-14.612530801926258,-15.358503370223973,-5.422356476337713,0.15070174115657586,-10.6163930738055,-12.889735230063128,-7.8646528246195455,-2.733668956747217,-0.6719999999999999
-13.5357616943617,-15.056453503629413,-4.800726860858889,0.6925752872839732,-10.06725486576813,-12.660435302472914,-7.666991669020481,-2.3633396395671307,-0.6679999999999999
-12.579261787783247,-14.814521062665651,-4.2916646239512275,1.1866034682373536,-9.61925193102314,-12.464332735636603,-7.532175104105072,-2.0540221168346857,-0.6639999999999999
-11.766027458739865,-14.638530687261989,-3.910918789181581,1.6119205786563429,-9.295949320852916,-12.310228810988914,-7.470819022438445,-1.828318977443435,-0.6599999999999999
-11.11449596188494,-14.531486046365501,-3.6696534194829837,1.9484974624427425,-9.115286826345242,-12.205519918749077,-7.491229252989738,-1.7077460521826504,-0.6559999999999999
-10.638065006668182,-14.493174608085996,-3.573778993161447,2.178594964466126,-9.088198307400955,-12.155223102319058,-7.598308344546685,-1.7108687671192806,-0.6519999999999999
-10.344625808477256,-14.51991739310644,-3.6234376228018803,2.288247660758552,-9.2175607146445,-12.161122234228518,-7.792560565286002,-1.8513670615222182,-0.6479999999999999
-10.236139700679226,-14.604507886093815,-3.8126898104855975,2.2686607294123506,-9.49756117470837,-12.221137824895337,-8.069286810706412,-2.1361997781429576,-0.6439999999999999
-10.308308584847262,-14.736359360827219,-4.129444819052843,2.117394066845094,-9.913540215758427,-12.32898535537769,-8.418055071460678,-2.564063239118073,-0.6399999999999999
-10.550409648313327,-14.901865667277576,-4.555677657641127,1.8391970325130593,-10.44235177532263,-12.47416202632935,-8.8225402809022,-3.1243538037175673,-0.6359999999999999
-10.945370626969746,-15.08496675446876,-5.067968479596889,1.4463673470247773,-11.053257811712077,-12.642276756823724,-9.260820239912086,-3.7968246454924657,-0.6319999999999999
-11.470136029123058,-15.267879942296064,-5.638365664570909,0.9585617135125748,-11.709324996978511,-12.815694456526415,-9.706166279451764,-4.552053697383988,-0.6279999999999999
-12.096328414799034,-15.431923756383009,-6.235523960036897,0.4020670687742349,-12.369226124262688,-12.974417757396925,-10.128293658246095,-5.352729166797145,-0.6240000000000001
-12.791178912777317,-15.558361396357098,-6.826045038099005,-0.19140081660606878,-12.989315161653002,-13.097120547965343,-10.494985568690273,-6.155660786633923,-0.6200000000000001
-13.518703461555019,-15.629236543699676,-7.375967980900102,-0.7862970572437646,-13.525864420613537,-13.16228912037573,-10.773998184719593,-6.914371445427113,-0.6160000000000001
-14.241103116438035,-15.628218585149108,-7.852382753055126,-1.3451800143088177,-13.937386209549667,-13.149465944801868,-10.935155663985682,-7.582092689494294,-0.6120000000000001
-14.920329188561066,-15.541463516182658,-8.22511958925265,-1.8308858898656042,-14.18695557364467,-13.04057144046633,-10.952510025475004,-8.11494176153564,-0.6080000000000001
-15.51968881964108,-15.358437229841819,-8.468405369902477,-2.2087983853257604,-14.244405379494165,-12.821213458845085,-10.806385209822885,-8.475007495830884,-0.6040000000000001
-16.005323118966484,-15.072593969583421,-8.562325126937504,-2.4490217585867846,-14.088225482634163,-12.481842782299417,-10.485095448135585,-8.633059449880005,-0.6000000000000001
-16.347396687948184,-14.681791439205693,-8.493918307545787,-2.5282613412132102,-13.706993578213211,-12.018609251177974,-9.986144267117878,-8.570632451307706,-0.5960000000000001
-16.520886428155364,-14.18835378263684,-8.257774833824557,-2.431246072613111,-13.100194145285698,-11.433808051912791,-9.316758935062426,-8.281306865236967,-0.5920000000000001
-16.50593140750695,-13.59874969304405,-7.856062542807898,-2.1515809937356116,-12.278335985382457,-10.735861543800963,-8.493686796250241,-7.771087841204605,-0.5880000000000001
-16.287788820440795,-12.922920619928043,-7.298000689107113,-1.6919866388182931,-11.262352510314708,-9.938845841029133,-7.542271050219057,-7.0578823602357295,-0.5840000000000001
-15.856515454520327,-12.173355876920697,-6.598873414907319,-1.0639553407148834,-10.082347898444711,-9.061628708433489,-6.494915425701118,-6.170171200743471,-0.5800000000000001
-15.206540208297312,-11.364051075780965,-5.778731835046631,-0.2869146773379754,-8.77581605568115,-8.12672239235634,-5.389109146327271,-5.14504929614854,-0.5760000000000001
-14.336295366147402,-10.50949257718955,-4.860950082160992,0.6129809285455146,-7.385491049956556,-7.158962954538567,-4.2651934032867205,-4.025837463492044,-0.5720000000000001
-13.248024816289943,-9.623777587082552,-3.8707744387696765,1.604317846032263,-5.9569804446726184,-6.184104605369002,-3.1640107333507457,-2.8594455819837954,-0.5680000000000001
-11.947797199426628,-8.719914173664428,-2.8339453329761115,2.652078021915786,-4.53629632257012,-5.227375494272475,-2.1245194067996964,-1.6936136865578786,-0.5640000000000001
-10.445658036838278,-7.809277701790597,-1.7754103267377523,3.7194515942201765,-3.1673613853057727,-4.312010022327906,-1.1814199002280548,-0.5741130065039908,-0.56
-8.755803423284961,-6.901170898414433,-0.7181214204975892,4.7697847311908825,-1.8895637528731255,-3.457784292849842,-0.36286175218193417,0.45800873649881435,-0.556
-6.896669650741421,-6.002462478548329,0.3180616505741862,5.768595367205034,-0.735476616266526,-2.6796420575430036,0.3116256083886686,1.3689953340630456,-0.552
-4.8908887347544425,-5.117342195521571,1.3172809778436614,6.685516535177284,0.2710767421461142,-1.9865750251258079,0.8327465007653716,2.1345405366464254,-0.548
-2.7651199513382565,-4.247284519407469,2.2682737094841863,7.495970206859592,1.1163919566862983,-1.380960599285689,1.20232557773961,2.7412703533076437,-0.544
-0.5497977684401834,-3.3913205302592337,3.1645207655028287,8.182372782198717,1.7974895806854443,-0.8585239790956805,1.4332491336531046,3.187323433791268,-0.54
1.7211793213922526,-2.5466624246259495,4.003888419559645,8.734740726001913,2.321858294247532,-0.40898184912774127,1.548388621230881,3.4819346924800225,-0.536
4.0108425773772165,-1.7096279490725537,4.787808348394064,9.150676363637952,2.7063737501710268,-0.017287638274118056,1.5786171221586116,3.6440998738919133,-0.532
6.279693106218457,-0.8767243350365939,5.52013918173262,9.434815183201398,2.975550456667097,0.3347040381895816,1.5601740796399968,3.700536496196227,-0.528
8.486452270133347,-0.04571712986241172,6.205894654911557,9.597865595061696,3.1593416565098575,0.6663710625612631,1.5316956680255505,3.6832124458120283,-0.524
10.58904736078675,0.7834648940712774,6.85000554061328,9.65536914953069,3.290700416835339,0.9964525751960851,1.5312141260268755,3.626697469921643,-0.52
12.545801426094194,1.6080758469700442,7.456229283906954,9.626278601758962,3.4030812535582378,1.3413240074042798,1.5933684673107305,3.565542313418992,-0.516
14.316746841792757,2.422170869958895,8.026262655497533,9.531418789842292,3.5280208828012807,1.713520854684949,1.7469901137244852,3.5318330571830776,-0.512
15.864957967506031,3.2164732759208854,8.55907365498074,9.391880296966274,3.6929066452319783,2.1205756772751396,2.013157204970774,3.553019490281833,-0.508
17.157809001630476,3.9784610355564056,9.050464304890156,9.227409573714949,3.9190336243660964,2.564215556928149,2.40377194912371,3.650089318985997,-0.504
18.168101349678373,4.692668964132761,9.49289969796291,9.054895872617985,4.220064340197386,3.0399695827337028,2.9207074300956197,3.8361586530609486,-0.5
18.875043494903977,5.341233326785726,9.87566053808047,8.887088428537718,4.601015130508199,3.5372383282609956,3.5555720485215803,4.115556766879314,-0.496
19.265084622982027,5.904713641149261,10.185370114128975,8.731682311577963,5.057877904412276,4.03986052255373,4.290131146384966,4.483479779118049,-0.492
19.332605885348443,6.363210993203101,10.406914881169586,8.590887370465246,5.5779451236308395,4.5271780129264165,5.097403171189617,4.92627044571389,-0.488
19.080468202269874,6.697770355937243,10.524733222746132,8.461548642092952,6.140848944082218,4.975557068812668,5.943408497149626,5.422348482836488,-0.484
18.520398376029657,6.892006107679105,10.524393189082694,8.335821194906153,6.720256473388218,5.360274375332734,6.789487907687688,5.943762902715216,-0.48
17.673171260354906,6.933835830606331,10.394328052107321,8.202332999761788,7.286095213176307,5.65763049940811,7.595041443169462,6.458277722822608,-0.476
16.56853130588273,6.817167528198004,10.127565529678353,8.047717938697055,7.807132835417774,5.847126165741942,8.320490490541928,6.931854953816509,-0.472
15.244790544456789,6.543361098997567,9.723269352850991,7.858365930307459,8.253698743675175,5.913520572879257,8.93023381732328,7.331358587725942,-0.46799999999999997
13.7480263323118,6.122264391811413,9.187894840493815,7.6222011540368975,8.600296797996357,5.848571192982904,9.395338324634626,7.627253946414772,-0.46399999999999997
12.130784525720303,5.57261321891761,8.535748537152523,7.330264140141654,8.827827462353698,5.652239028415796,9.695688719390109,7.796028173997159,-0.45999999999999996
10.450200178891274,4.921608712063948,7.788763715021349,6.977864659188818,8.925142756737383,5.3331584208865195,9.821344340595779,7.822044415471816,-0.45599999999999996
8.765505705677395,4.203566990547026,6.975383924106673,6.565117973748221,8.889724103359903,4.908236613911023,9.77293178510526,7.698595062319555,-0.45199999999999996
7.135014925689418,3.4576827445619744,6.128593116787195,6.096792143503384,8.727411431332973,4.401374724626889,9.561040139576132,7.428049723435623,-0.44799999999999995
5.612830885970048,2.725140513511033,5.283321243829107,5.581564661744723,8.451303861383668,3.8414777322296327,9.204765496377526,7.021180478571555,-0.44399999999999995
4.245663985211863,2.0459791312243296,4.473621275508325,5.030948641403225,8.080130023745921,3.260086732451076,8.729715058957453,6.495920044977034,-0.43999999999999995
3.0701835081526188,1.456176007442592,3.7300689701627396,4.458211438241319,7.636455980602374,2.6890295319158124,8.165841975666837,5.875875259004402,-0.43599999999999994
2.111227518470125,0.9853300988394724,3.07774517507495,3.877532903083885,7.145023543296691,2.158403675395271,7.545402317950899,5.188844372580885,-0.43199999999999994
1.381010013885403,0.6551346676671659,2.5349736955072855,3.303486493050196,6.631348079210329,1.6950327201058717,6.901160701557339,4.465430693890211,-0.42799999999999994
0.8792722510636093,0.47863235867034826,2.112794962618836,2.750763151333363,6.120547321748637,1.321368276699844,6.264819279799739,3.737702362483545,-0.42399999999999993
0.59419402843388,0.4601088720166362,1.815027303070071,2.2339641567576,5.636289816676424,1.0547179041279378,5.665577711832423,3.0377864580846823,-0.41999999999999993
0.5038422766012278,0.5954421729077137,1.6387348352944855,1.7672942576086497,5.199765654811137,0.9066833500656823,5.128764755528547,2.3963247208287504,-0.4159999999999999
0.5779709686641379,0.872763763358948,1.574963658033389,1.3640685593211572,4.828662867236867,0.8827621525781514,4.67457278931174,1.840823700345675,-0.4119999999999999
0.7800428420301309,1.273348949901345,1.6096668860780547,1.0360443026024728,4.536215119918628,0.9821338377340909,4.317004913127965,1.3940355229143204,-0.4079999999999999
1.0693790173176696,1.7726905820168786,1.724770330561792,0.7926532395271146,4.3304244224394575,1.1976789040828493,4.063170082633939,1.0725570774326458,-0.4039999999999999
1.4033569763968101,2.3417255228290927,1.8993347465206463,0.6402355909244224,4.2135578558762665,1.5162727302626124,3.913040970874265,0.8858297750675037,-0.3999999999999999
1.73957796470535,2.948185989756469,2.110760311296799,0.5813697249586007,4.181985173706202,1.9193779503537833,3.859736196334553,0.8356688113961486,-0.3959999999999999
2.0379060002996487,3.55803365614088,2.3359545309416667,0.6143535984494712,4.226368610226015,2.383928023309332,3.8903079002232923,0.916359087052661,-0.3919999999999999
2.2622501881376604,4.136905751504089,2.552356543025639,0.7328428076485374,4.33215250935142,2.8834520796445444,3.9869278203333427,1.1152547891629307,-0.3879999999999999
2.3819548945343207,4.651487532658868,2.7387116361868102,0.9256267878316149,4.480265439957769,3.3893593223168854,4.128310684483989,1.413759056323972,-0.3839999999999999
2.3727031711075437,5.0707451521698,2.875538874472606,1.1765504914933278,4.647962434883835,3.872300757211221,4.29121417874595,1.7885584833532908,-0.3799999999999999
2.2169077772842227,5.36698776800096,2.9453066870759375,1.464635069775191,4.809775319979117,4.303543730260859,4.451887725962055,2.213014008908223,-0.3759999999999999
1.9036213447357877,5.516743628374895,2.9323837691566874,1.7644709562291727,4.9385633725773,4.656302030238838,4.587373726930437,2.658624733963168,-0.3720000000000001
1.428033436326551,5.501432255319601,2.8228559217501985,2.046938765313647,5.0066553183530775,4.906959255462942,4.6765905279708955,3.0964807831015673,-0.3680000000000001
0.7906642299858095,5.307828718020911,2.6043196660226715,2.2802871246552083,4.987072759072113,5.036132032565236,4.701166503841831,3.4986332601783916,-0.3640000000000001
-0.0035713725493735637,4.928366341125923,2.2657981572903307,2.431589360268032,4.854845163528552,5.029557619252633,4.646056217302237,3.8393517379323203,-0.3600000000000001
-0.9461998759495653,4.361382166127431,1.7979500492656348,2.4686009973824916,4.588451599532428,4.878835663394245,4.500027543112577,4.096294276793253,-0.3560000000000001
-2.025707504135781,3.6114181787444157,1.1937087640315394,2.362005822648739,4.171412683634372,4.5820641112019675,4.256123778679504,4.2516390152633745,-0.3520000000000001
-3.2276294246873736,2.6896195155703015,0.44937494264897637,2.0879448230110804,3.59398243436629,4.144361793467734,3.9121578609842604,4.29319075410474,-0.3480000000000001
-4.53426330182779,1.6141481603496954,-0.43397526460398206,1.6305963995609196,2.8547778923396727,3.5781889935061177,3.4712076604892497,4.215395045993131,-0.3440000000000001
-5.924203533381052,0.41042749764473463,-1.4490349385302674,0.9844805733708157,1.9620944827509779,2.9033177083203823,2.9419989548223793,4.0201148389526224,-0.3400000000000001
-7.371954853554097,-0.8889979878534549,-2.581082744380333,0.15614061214196084,0.9346329172297039,2.146305437605997,2.339022318492856,3.7169914369721218,-0.3360000000000001
-8.847863540945784,-2.2451638038127015,-3.8073584977825097,-0.8350896198983719,-0.1985905815444277,1.3393853359449244,1.6822361936630137,3.3232270282352605,-0.3320000000000001
-10.318532619422808,-3.6140443035696763,-5.097204735172563,-1.957424510842143,-1.3992894979743111,0.5187696571586409,0.9962487006517766,2.862676024460484,-0.32800000000000007
-11.747787546842385,-4.948567500780186,-6.413069659220219,-3.168136433100442,-2.6219281630316775,-0.2775497849066081,0.3089402247059587,2.3642139683346306,-0.32400000000000007
-13.098140205726581,-6.201167824133323,-7.712329237945238,-4.4161486816249464,-3.8165961706707368,-1.0123357525975445,-0.35041322359451,1.8594697478724846,-0.32000000000000006
-14.332580541667355,-7.326638730011394,-8.949740016813804,-5.645462259118858,-4.932464759047641,-1.6517308581298882,-0.9533461169888539,1.3801418408995394,-0.31600000000000006
-15.416445722321345,-8.284961433211185,-10.080221304253444,-6.7990388264081325,-5.921442516969199,-2.167687133376784,-1.4744842617236147,0.955226097706956,-0.31200000000000006
-16.319112889311878,-9.043775411867387,-11.061628639523231,-7.822713393915261,-6.741616160811655,-2.539924140653243,-1.8936189283398246,0.608513228135056,-0.30800000000000005
-17.015335696682943,-9.580229149863106,-11.8572293798074,-8.668754534889523,-7.360119890925908,-2.7572068965718155,-2.1973287841887768,0.35665564518075943,-0.30400000000000005
-17.486154878206104,-9.88206956991465,-12.437690879539296,-9.298794413984593,-7.755191639368465,-2.8178340028094184,-2.3799779929952902,0.20798962375402397,-0.30000000000000004
-17.71940091136391,-9.947940465784587,-12.78248821034201,-9.685962125177781,-7.917296304776491,-2.72932605104075,-2.444000713968564,0.16218261484932395,-0.29600000000000004
-17.70984282604079,-9.786932295408166,-12.880700555091458,-9.816138248818376,-7.849293852577869,-2.5073857516043367,-2.3994590488386036,0.21068623213531001,-0.29200000000000004
-17.459037921083212,-9.41746875423648,-12.731202601996209,-9.68831057829809,-7.565706641302572,-2.174265020174865,-2.262937163854655,0.3379065313188976,-0.28800000000000003
-16.974938739527907,-8.86565954193766,-12.342296795081026,-9.31407322200073,-7.09121313724892,-1.7567306326134935,-2.05591370047788,0.5229369689636316,-0.28400000000000003
-16.271333401287094,-8.163305477730162,-11.730885316759363,-8.716383543998528,-6.458569070134773,-1.2838708237252394,-1.8028290310917696,0.741633283050743,-0.28
-15.36722237768261,-7.345794809179358,-10.921333653631404,-7.927761854905842,-5.706217573121206,-0.7850173437738515,-1.5291138218715403,0.9687588180495874,-0.276
-14.286243388276022,-6.450146642432469,-9.944204886987208,-6.988164069634821,-4.8758735129832385,-0.2880491819636388,-1.2594501474197912,1.1799170018427034,-0.272
-13.056216784036575,-5.513406113412158,-8.835016864753626,-5.942749976768038,-4.010328400824769,0.18172978120067818,-1.016476067558574,1.353041105165909,-0.268
-11.708784370023558,-4.571465959109583,-7.633080392927683,-4.839693639364196,-3.1516103318809074,0.6020951604133078,-0.8200134305106948,1.4693400735583868,-0.264
-10.278992575945454,-3.658224943730848,-6.3803503309311544,-3.7280654211713165,-2.339483556809777,0.9539259413064505,-0.6867346977943637,1.5137647166628083,-0.26
-8.80460251835898,-2.8048804870468853,-5.120137604781221,-2.655725471616043,-1.610158929069764,1.221018367464752,-0.6300614592713412,1.4751842642522641,-0.256
-7.324948751332721,-2.039152547060803,-3.895545079884272,-1.6671630486176978,-0.9950677520257367,1.3899813489577957,-0.6600614631032864,1.3464919335561678,-0.252
-5.87930629770142,-1.3843436850797683,-2.7476010949358396,-0.8012987684050232,-0.5196297554328726,1.4504081071751895,-0.7831883857193742,1.1247865130060246,-0.248
-4.504902450802266,-0.8582974062067712,-1.7132184745377326,-0.08939290645815046,-0.20207515838610246,1.3953509045425294,-1.0018519760636204,0.8116445236972396,-0.244
-3.2348505278124975,-0.4724466050749694,-0.8232327361358083,0.4466942986299882,-0.05249411783685143,1.2219628290569657,-1.3139514608293745,0.41336506690116703,-0.24
-2.0963307053920124,-0.23118878884940086,-0.10081442540266305,0.7956208297989011,-0.07232670923014384,0.9320844488626219,-1.712583823138163,-0.05900208707340493,-0.236
-1.1092893226530496,-0.13177477066722698,0.43950544342322173,0.9568598671380788,-0.2544562366182075,0.5325687878861904,-2.186117379264833,-0.5900157322080624,-0.23199999999999998
-0.28581203279242917,-0.16479004087456683,0.7920758628228004,0.9401043753191569,-0.5839607776759206,0.03522112761809515,-2.7187250080352,-1.1606711461590722,-0.22799999999999998
0.3698029215537417,-0.31519071353912276,0.9596436241746042,0.7638468747228533,-1.0394599953830317,-0.5436719803885457,-3.2913552617841186,-1.749663823992453,-0.22399999999999998
0.8603628529806828,-0.5637536099736504,0.9522798683934282,0.45332457920237257,-1.5948920828803008,-1.184164060174523,-3.8830219073047267,-2.334950855032906,-0.21999999999999997
1.1946749194117379,-0.8887259973269992,0.7859377604752407,0.038111452071270424,-2.2214833398824156,-1.8636964612537072,-4.47223164369716,-2.8953987636257503,-0.21599999999999997
1.3862452101239864,-1.267436764999598,0.480899578902346,-0.4503264531013329,-2.889653752767758,-2.5582267039231796,-5.038360509874039,-3.412290155055124,-0.21199999999999997
1.4519889661726904,-1.6776703611685284,0.060336610482812025,-0.9808346208209772,-3.5706491060678918,-3.2433212804931775,-5.562830152599773,-3.870506647964242,-0.20799999999999996
1.4110838365294782,-2.0986908748668207,-0.45088461701441185,-1.524351910733203,-4.237784048560554,-3.895157340222025,-6.029998142864198,-4.259285361184964,-0.20399999999999996
1.284005036115853,-2.5119032884923653,-1.027125869067446,-2.0552097057481253,-4.867285857707917,-4.491436952915463,-6.427735533439172,-4.572529522672516,-0.19999999999999996
1.0917068861022035,-2.9012183311556083,-1.6426964009453815,-2.551989748727626,-5.438812195300102,-5.012251043722993,-6.7477103374928955,-4.808723484468734,-0.19599999999999995
0.8548963936427239,-3.253213123856685,-2.27246334577906,-2.9980249322219628,-5.935744618756274,-5.4409160706043345,-6.985415838050689,-4.970538626897707,-0.19199999999999995
0.5933897613268688,-3.5571430844139234,-2.892406248870186,-3.3815964938572822,-6.345320852395118,-5.764742633949606,-7.139967656816971,-5.064204014803993,-0.18799999999999994
0.32560002053840265,-3.8048079361440483,-3.4801033672801758,-3.695824826925378,-6.6586069339076115,-5.97562879543392,-7.213669767126891,-5.09868234839537,-0.18399999999999994
0.06820320646559219,-3.9902705810249555,-4.0151198738047285,-3.938242146301472,-6.870293535862369,-6.07036659581468,-7.211364057815842,-5.084691686947367,-0.17999999999999994
-0.16402988506184335,-4.1094741013954454,-4.479305395570179,-4.110084751728188,-6.978339196722825,-6.050611360076477,-7.1396314810770285,-5.033653021122491,-0.17599999999999993
-0.35830246318847236,-4.1598387361055345,-4.8570415307094095,-4.215393908596884,-6.983521549705906,-5.922527815744877,-7.005953351029767,-4.9566731640783015,-0.17199999999999993
-0.5038295398095494,-4.139909239020145,-5.135470455984018,-4.260025654377759,-6.888956084270399,-5.696151976683407,-6.817936142210227,-4.863659672445889,-0.16799999999999993
-0.5918886059378017,-4.049089113903962,-5.3047075669519685,-4.250658568138928,-6.699620851849471,-5.384516139656554,-6.582675518535418,-4.762632615420905,-0.16399999999999992
-0.6159137225326106,-3.8874819656668844,-5.35803255060161,-4.1938872904862885,-6.421920977600061,-5.002615033432958,-6.306318864906034,-4.659279098148616,-0.15999999999999992
-0.5716610188218993,-3.655863007278681,-5.2920638394114246,-4.09549544330738,-6.063337526787453,-4.566336308022931,-5.993874669832666,-4.5567857067544875,-0.15599999999999992
-0.4574549348353507,-3.3557971938077333,-5.106921751739074,-3.959985370176936,-5.632200821681839,-4.091493297544732,-5.6492831277320725,-4.455956217365471,-0.1519999999999999
-0.2744813619046509,-2.989890620718386,-4.8063627336284345,-3.7903932583476605,-5.1375964034282235,-3.5930607200008313,-5.275705224971452,-4.355576465946882,-0.1479999999999999
-0.027050319834930114,-2.56212681955059,-4.397840379640087,-3.588362585672378,-4.589375687607036,-3.0846537060391244,-4.8759454285663155,-4.252954649676985,-0.1439999999999999
0.27726724740850406,-2.0782204032001896,-3.8924396455086807,-3.3544161521005424,-3.9982266088976868,-2.5782467269038483,-4.452921981314047,-4.144560000067016,-0.1399999999999999
0.6277171729950717,-1.5459138882731396,-3.3046353080761985,-3.088357417250398,-3.3757556820766625,-2.0841065718132294,-4.010119206526369,-4.02668780711388,-0.1359999999999999
1.0107219377327126,-0.9751399625156592,-2.6518344318417686,-2.7897313460493525,-2.734527706065613,-1.6108976972990745,-3.5519701548858476,-3.896078347887369,-0.1319999999999999
1.4105532120168545,-0.37797880208702983,-1.9536818300249439,-2.4582818851357118,-2.088009100888412,-1.1659070914072216,-3.084128426912697,-3.7504237616479754,-0.1279999999999999
1.8102943684867738,0.23163376752056708,-1.2311420037850884,-2.094357827737662,-1.4503739660701809,-0.7553300562632574,-2.613604160786001,-3.588719077320744,-0.12400000000000011
2.1930168011784277,0.838454990303052,-0.505408676502638,-1.6992318619846056,-0.836150364570899,-0.38454914225345993,-2.148748842942382,-3.4114354781931553,-0.1200000000000001
2.54304893311038,1.4267063106354305,0.20327218474169761,-1.275311558409654,-0.25970661069992484,-0.058332594845181385,-1.6990725270378557,-3.220509203062268,-0.1160000000000001
2.847176885456638,1.9809795190788306,0.8767418578963462,-0.8262511042429685,0.2653843752871822,0.2190986297761191,-1.2748873408659038,-3.0191659597485154,-0.1120000000000001
3.0955977259666434,2.4871444917326286,1.4998806885242213,-0.35700760378124796,0.7270210876484795,0.44413696081277876,-0.8868014175349966,-2.811636477966112,-0.1080000000000001
3.282484097003548,2.9331255473242686,2.0612441971511752,0.12611248585293255,1.115197355683257,0.6139536653330822,-0.54511110588267,-2.6028291568156203,-0.10400000000000009
3.4061103409611184,3.3094678126036152,2.5533294347896143,0.615411708114675,1.4225144011634454,0.7267315622556234,-0.25913743573233106,-2.3979980664738325,-0.10000000000000009
3.4685834462391485,3.609680090697003,2.9724976530526126,1.1018033392315487,1.644561110023211,0.7819467048848829,-0.03654337847379585,-2.2024136364670728,-0.09600000000000009
3.475273201760025,3.8303744643162494,3.318623271084393,1.574906199218892,1.7801542620177782,0.7806735278724872,0.11732359211822452,-2.021041824558642,-0.09200000000000008
3.434043526765084,3.971222217908772,3.594544154114227,2.023262523439179,1.831415125733594,0.7258561798967014,0.19999041518969385,-1.858260897990342,-0.08800000000000008
3.3543678969687,4.034727441070811,3.8053701728462435,2.4346752526353326,1.8036354793957243,0.622449362217802,0.2122079087328621,-1.7176744512176314,-0.08400000000000007
3.2463820602916504,4.025801430925318,3.957682385778493,2.796628506896081,1.7048749490460446,0.47731003748356127,0.15795845255754193,-1.6020969366305082,-0.08000000000000007
3.11991064070584,3.9511262678888626,4.058648066842464,3.0967445157388163,1.54525686397702,0.2987479944499687,0.044022714948958264,-1.513767507442492,-0.07600000000000007
2.9835217228302113,3.81834180095397,4.115106094404977,3.323256961458063,1.3360023308236664,0.09573073791732467,-0.12089128958044526,-1.4547753752520096,-0.07200000000000006
2.8437044566205443,3.63515989076836,4.132728621614058,3.4655267281179665,1.08833342343073,-0.12314702228274665,-0.3273232279594738,-1.4275861831377057,-0.06800000000000006
2.704293073691988,3.408560799117012,4.1153993780320555,3.514652048359271,0.8124363380862092,-0.3507336481629792,-0.5663129323999669,-1.4354984543228704,-0.06400000000000006
2.5662537077100405,3.144232421949022,4.064942178358328,3.4642117989680954,0.5166786758903328,-0.5822090948057572,-0.8304782884387144,-1.482856140509988,-0.06000000000000005
2.427911748900062,2.846377307828852,3.981288949426865,3.3111394829235326,0.2072309082753616,-0.8155975753508538,-1.114699954491833,-1.574885484733981,-0.05600000000000005
2.2856338471728486,2.5179450156634537,3.863103442604578,3.0566693647689185,-0.11183599769706065,-1.0517798685719155,-1.4162760597084019,-1.7171010910968487,-0.052000000000000046
2.134888867037966,2.16125088592161,3.7087772054207937,2.707226771452087,-0.43801341315437575,-1.2939898466265038,-1.7345361815846971,-1.9143378750807338,-0.04800000000000004
1.9715049266538474,1.7788279007495595,3.5176014206186226,2.2750600919372768,-0.7695408895029812,-1.5469149139691174,-2.0700527470519328,-2.1695965571994797,-0.04400000000000004
1.7928478402507362,1.3742603858068132,3.290827805360057,1.7783621729623071,-1.1045823585871197,-1.8156421457240874,-2.423711403037256,-2.4829956881735233,-0.040000000000000036
1.5986201336434318,0.952718795206462,3.032314380924749,1.2406478244720613,-1.4406894444594804,-2.1047448975772234,-2.7959453146010698,-2.85114732960409,-0.03600000000000003
1.3910642441529992,0.5209978937122668,2.748548496052791,0.6892786762672538,-1.77475995921272,-2.417742441217266,-3.186366131867028,-3.2671777320027857,-0.03200000000000003
1.174545051860067,0.08704851328645224,2.448040409003843,0.1532460704209757,-2.1035028405652976,-2.7569923302328014,-3.5938474440793664,-3.7214104101325205,-0.028000000000000025
0.9547039318195338,-0.3408001842452646,2.1403002820645236,-0.33944808139237503,-2.4242024578117594,-3.1238703726852215,-4.0169114085997775,-4.2025007224041335,-0.02400000000000002
0.737505400330571,-0.7546192359084167,1.8347359045266907,-0.7643474130057233,-2.7354511836868403,-3.5189668337197517,-4.454142406384935,-4.698672351104163,-0.020000000000000018
0.5284861635107667,-1.1473812594728354,1.5397889928893096,-1.1025978565039605,-3.037541992636209,-3.942038207830043,-4.90435825141237,-5.198713041179932,-0.016000000000000014
0.33240070888041995,-1.5130371711081558,1.2625044402458374,-1.3422117405992595,-3.332345274928313,-4.391577306386218,-5.3663827289112565,-5.6925086705265535,-0.01200000000000001
0.15330003154558813,-1.8461816880984045,1.0085650071195595,-1.4784374930835957,-3.6226688294367833,-4.86403819144293,-5.838423065640009,-6.171068031872178,-0.008000000000000007
-0.00507272838137407,-2.1414640698214473,0.7826711390557102,-1.5133246725954423,-3.9112643157904046,-5.352915658804533,-6.317209724069915,-6.626161742222347,-0.0040000000000000036
-0.13879136250091229,-2.3929876414761555,0.5890435344736367,-1.454719637878699,-4.199750991042862,-5.84797643950763,-6.797155873178446,-7.049816714949497,0.0
-0.2434029488632019,-2.593943747403827,0.43181006916814857,-1.3149838950511663,-4.48774326340493,-6.33493686575295,-7.269807163963008,-7.433933966984499,0.0040000000000000036
-0.3139096618045736,-2.7366472260955703,0.31510793600113773,-1.1096885432503463,-4.772395886764086,-6.79578784633255,-7.7237834177955484,-7.770233139824381,0.008000000000000007
-0.3451455228191955,-2.8130228093516187,0.2428436374038756,-0.8564441061862174,-5.048460587979841,-7.209823562896371,-8.145296019772093,-8.050609030578125,0.01200000000000001
-0.3325152640361102,-2.8154854085669516,0.21815440517412155,-0.5739293642041297,-5.308829052322112,-7.555281793156379,-8.519197747239929,-8.267859878675308,0.016000000000000014
-0.2729933128847568,-2.738090352835597,0.2426751643234204,-0.2811170498498048,-5.545450136952212,-7.811389008949955,-8.830420001381242,-8.416650820030384,0.020000000000000018
-0.16623893978847093,-2.5777964432294413,0.3157414332297104,0.0033437136531007106,-5.750457804189881,-7.960542116321138,-9.065593886223615,-8.494523515379175,0.02400000000000002
-0.01564707858068637,-2.335659455823835,0.43367669030528555,0.2616586534374745,-5.9173153562888725,-7.990343985680265,-9.214627997886979,-8.502744191809638,0.028000000000000025
0.17088131506351267,-2.0177471954731376,0.5893332399655784,0.47743276021221215,-6.041764292512617,-7.895224599403381,-9.27201272657921,-8.446786226234115,0.03200000000000003
0.3806681837698296,-1.6355694805027912,0.7720508941620472,0.6363288409049079,-6.122385359793151,-7.677426996337341,-9.237648686047335,-8.336284991381905,0.03600000000000003
0.5966367777207795,-1.205884573707889,0.9681321345783647,0.7268840345284503,-6.1606613959414265,-7.347232034546643,-9.117076089784113,-8.184401660994325,0.040000000000000036
0.7983569064985971,-0.7498677777414273,1.1618139751943835,0.7414250884537061,-6.160559185093327,-6.9224240969206505,-8.921099182260335,-8.00666830042573,0.04400000000000004
0.9636287871394238,-0.2917563350829,1.3365951635205255,0.6769265616805722,-6.127766844754669,-6.427117392271109,-8.664909345121544,-7.819504325357251,0.04800000000000004
1.0703676550602426,0.14282491450775536,1.4766955463997675,0.5356081003706095,-6.068793626101893,-5.89013633164388,-8.366876955377318,-7.638655037008145,0.052000000000000046
1.098502691614419,0.5286156799195454,1.5684002122058103,0.3250806128147997,-5.990149856570834,-5.343166018068681,-8.047197744386294,-7.477799366236037,0.05600000000000005
1.031627841168003,0.8423315578642288,1.601081730421655,0.05792694113328767,-5.897776226326567,-4.818862444891203,-7.726549073729762,-7.347511923534652,0.06000000000000005
0.8582300871915107,1.0639921093874531,1.5677900962625677,-0.24927503450482025,-5.796795495136487,-4.3490489269210375,-7.424849569462349,-7.2546604445287155,0.06400000000000006
0.5724300560928182,1.1779154878894347,1.465410209884093,-0.5773558840349446,-5.691554898603979,-3.963058978968762,-7.160153326133159,-7.202213223238302,0.06800000000000006
0.17424958352349407,1.1733910264012857,1.2944612569241873,-0.9061822569828748,-5.58586141989956,-3.6862527712365014,-6.9476811526457265,-7.189366796244479,0.07200000000000006
-0.33054487664511534,1.0450572670413432,1.0586358179072128,-1.2163024348969897,-5.483301678672193,-3.5387421578556904,-6.7990056926565225,-7.211897113540677,0.07600000000000007
-0.9309650172385382,0.793003379022188,0.7641687371683035,-1.490444787222632,-5.387565198073981,-3.534386277055322,-6.721445640479239,-7.262669425585409,0.08000000000000007
-1.611625811071777,0.4225996997800201,0.41910852374116603,-1.7147607697358809,-5.302727803158402,-3.6801392797433956,-6.717755605995352,-7.33228388387499,0.08400000000000007
-2.3538027705646165,-0.05594257923582413,0.03254523525342945,-1.8797582813256404,-5.233482966321622,-3.9758268737685114,-6.786196428322397,-7.40985984072473,0.08800000000000008
-3.1366429771910873,-0.628273539630523,-0.3861626624557748,-1.980906869284739,-5.185318091797446,-4.414388655336646,-6.921023122376958,-7.483952615311406,0.09200000000000008
-3.9384296720673735,-1.2768210678469085,-0.8281064739041875,-2.01889553246564,-5.1646078448076285,-4.9825469036050825,-7.113338911392069,-7.543546201864984,0.09600000000000009
-4.737765416926157,-1.9818130053333007,-1.2853984279170518,-1.9994947229736733,-5.178551763948574,-5.661775772736004,-7.352165927516778,-7.578999341736293,0.10000000000000009
-5.514527711458026,-2.722258239269239,-1.7514873954995736,-1.9329655842190334,-5.234866680654273,-6.42940170966361,-7.625530415507267,-7.5827929957470985,0.10400000000000009
-6.250497797344327,-3.476767302607877,-2.2211522930551375,-1.8330117346653965,-5.341189740893421,-7.259697241676651,-7.921383883182118,-7.549963429412158,0.1080000000000001
-6.929649712583158,-4.224168197163749,-2.690187713764205,-1.7153598457435955,-5.504229750213363,-8.12490346292779,-8.228254739943225,-7.478176679398765,0.1120000000000001
-7.538162796509843,-4.943943852171465,-3.154868095753672,-1.5961293085208137,-5.728771458610863,-8.99617557789951,-8.535598247805277,-7.367460795362838,0.1160000000000001
-8.064260905325765,-5.616555241328905,-3.611314292221264,-1.4901820731195552,-6.016668423286175,-9.844470409444483,-8.833866268623968,-7.219653845334382,0.1200000000000001
-8.497992250185318,-6.2237238703031625,-4.0548967480676215,-1.4096412977115098,-6.365966782002351,-10.641398986410255,-9.114358906323755,-7.037664368401077,0.12400000000000011
-8.831061709945512,-6.748745882776667,-4.479807172691103,-1.3627499370658431,-6.77030102117061,-11.360070418717815,-9.368956232971353,-6.824681653323307,0.1280000000000001
-9.056823886209205,-7.176910539292503,-4.8789243245717895,-1.3532185373041412,-7.218701551713499,-11.97596631946079,-9.589863423666696,-6.583507251092922,0.13200000000000012
-9.170533173764943,-7.496093119871315,-5.244081603505716,-1.3801794518262192,-7.695942158237142,-12.467899285234715,-9.769525672647923,-6.316188646557361,0.13600000000000012
-9.169901337511394,-7.697559821048941,-5.566789807644973,-1.4387999133212752,-8.183503883973328,-12.819092420277752,-9.900849396399703,-6.024095161493854,0.14000000000000012
-9.055917017733645,-7.776940495486336,-5.839362657980953,-1.5214946671551501,-8.661121494301172,-13.018344529442107,-9.977781359267963,-5.70847213225219,0.14400000000000013
-8.833755661012763,-7.735211910884972,-6.056257794142686,-1.6195403676551632,-9.108729979122494,-13.061134329930013,-9.996166070688647,-5.37136443201774,0.14800000000000013
-8.513505406860583,-7.579439094020241,-6.215335489229275,-1.7247782405902314,-9.508495842909948,-12.950421235988735,-9.954675796670378,-5.016664266275509,0.15200000000000014
-8.11040898258107,-7.3229960791291315,-6.318705512462314,-1.8310497670540364,-9.846558504160994,-12.696875838276945,-9.855539839853007,-4.650964320963997,0.15600000000000014
-7.644398875060736,-6.985055238514595,-6.372904542364655,-1.9350679967512519,-10.11415372670535,-12.318345327117871,-9.704821081550149,-4.283921899577207,0.16000000000000014
-7.138865492950044,-6.589284251450987,-6.388305064270311,-2.0365715756562532,-10.307936503125127,-11.83851159712092,-9.512095464349587,-3.927963311294282,0.16400000000000015
-6.618796134361133,-6.161878665854027,-6.377852187341766,-2.1377960289345856,-10.429521276542824,-11.284886878866716,-9.289550984218447,-3.5973413682524553,0.16800000000000015
-6.108595990092112,-5.7292293430668675,-6.355397744685003,-2.2424722421609333,-10.484450444105274,-10.686458058864938,-9.050687819072316,-3.3067413882842214,0.17200000000000015
-5.629992668849961,-5.315619615039536,-6.333994779924531,-2.3546690691722576,-10.480922180843018,-10.071378744491845,-8.8089128904066,-3.0697491736918523,0.17600000000000016
-5.2003917296225675,-4.941322807072405,-6.324490071180046,-2.477791157733313,-10.428605770326314,-9.465070333336747,-8.576326709473863,-2.897499853544174,0.18000000000000016
-4.831904633903883,-4.6213351147282395,-6.3346197165366185,-2.6139301932679557,-10.337753192712036,-8.888938508013954,-8.362893899045186,-2.797721990688289,0.18400000000000016
-4.531090096222435,-4.364807404813874,-6.368650480171308,-2.7636204833144116,-10.218658701173688,-8.359727184966983,-8.176043603314865,-2.774247692737213,0.18800000000000017
-4.299318303765763,-4.175115293103426,-6.427499617330804,-2.9259482653376434,-10.08141099495219,-7.889413805870538,-8.020646731525126,-2.8269579697807856,0.19200000000000017
-4.133604740784355,-4.05044733808519,-6.5092231699841765,-3.0989240572370473,-9.935844241139261,-7.485513963536282,-7.899279135570191,-2.95209148502627,0.19600000000000017
-4.027735903241817,-3.984761985326195,-6.609749117070587,-3.2800127197986977,-9.791587602421192,-7.151661867765072,-7.8126649471473435,-3.1428276224039338,0.20000000000000018
-3.9735024497389793,-3.968944398025348,-6.7237220322100235,-3.4667031493406384,-9.658112292406411,-6.888333300910379,-7.760180299007768,-3.3900341986205214,0.20400000000000018
-3.9618737181535995,-3.991997945714702,-6.845330040953758,-3.6570003563326012,-9.544688898664772,-6.693587632528148,-7.740298683010455,-3.6830572541951043,0.20800000000000018
-3.9839963019097677,-4.042144567583465,-6.969015806086901,-3.8497520969315064,-9.460206945679195,-6.563739496454733,-7.7508914636582205,-4.010447177999424,0.2120000000000002
-4.031958259455307,-4.107765841619006,-7.090017692913959,-4.044768023973498,-9.412858692737828,-6.49391913668785,-7.789350763361523,-4.360557646371021,0.2160000000000002
-4.099301968975769,-4.178160816318737,-7.2047206591128035,-4.242727275339437,-9.40972401605847,-6.478519006461328,-7.852552978009154,-4.721996894597573,0.2200000000000002
-4.181288496123875,-4.24411686554809,-7.310814520188712,-4.444897068309949,-9.456307743940972,-6.511541402015309,-7.936718434520614,-5.083944369402077,0.2240000000000002
-4.274927274447989,-4.298295934710181,-7.407270727410214,-4.652710183438575,-9.556086227551635,-6.586862631232144,-8.037246159895396,-5.436373229005715,0.2280000000000002
-4.378795091191629,-4.335441034509353,-7.494162289848504,-4.867272593275461,-9.710121901696095,-6.698425434777949,-8.148610053454945,-5.770235679932539,0.2320000000000002
-4.492686874505715,-4.352418285193098,-7.572369807344826,-5.088891585032225,-9.916807815509792,-6.840381633355087,-8.264398477313605,-6.077670490442593,0.2360000000000002
-4.617173602367655,-4.348133827308242,-7.64324272733543,-5.316729490523979,-10.171810709494231,-7.007237054014561,-8.377570446025226,-6.35228482728216,0.2400000000000002
-4.753165136319435,-4.323378243346211,-7.70829492141138,-5.548677765537187,-10.468268040959568,-7.1940658211871025,-8.480970100349964,-6.5895344003247605,0.24400000000000022
-4.901548176195006,-4.280620549076078,-7.7689746393486345,-5.7814835786512235,-10.797232926066437,-7.3968177215197635,-8.56806207607747,-6.787159100520521,0.24800000000000022
-5.062896575805131,-4.223713926928713,-7.82647607060549,-6.0110655401763164,-11.148272839728833,-7.612656250361862,-8.633748121273529,-6.945550146049902,0.2519999999999998
-5.237189862452145,-4.157445288251008,-7.88151456206996,-6.2328900888264265,-11.510078150568416,-7.840204149930583,-8.675066957208749,-7.067890442529234,0.2559999999999998
-5.423472199567617,-4.086894980694739,-7.9340086388677555,-6.442286371569502,-11.870961897591354,-8.079580103659755,-8.691603748801835,-7.159954823662707,0.2599999999999998
-5.619431916791686,-4.016647608572338,-7.982679140126081,-6.634638019285427,-12.219207442815913,-8.332166950605037,-8.685521055551147,-7.229553255968864,0.2639999999999998
-5.820945395956901,-3.9499637727816608,-8.02464313919812,-6.8054602391729535,-12.543296314081157,-8.600119954983306,-8.661222421087626,-7.285694590940067,0.2679999999999998
-6.021681368865341,-3.8880589990975007,-8.055118468931937,-6.950419304199889,-12.832094860686144,-8.88568324291749,-8.624738669394077,-7.337606027087053,0.2719999999999998
-6.212892315077108,-3.8296380358898054,-8.067358801979815,-7.065372366651342,-13.075091767794085,-9.190430293931131,-8.582973438020614,-7.3937602189461025,0.2759999999999998
-6.383521031524911,-3.7708039564952194,-8.052913027602715,-7.146501243040605,-13.262763628726407,-9.51457446750388,-8.542957574880164,-7.461048990162315,0.2799999999999998
-6.520710470401647,-3.7054010022207584,-8.002246093453437,-7.190582523671312,-13.387101944370322,-9.8564903005395,-8.511239178998325,-7.544205313887135,0.2839999999999998
-6.610724838524289,-3.625764832695944,-7.905679012734413,-7.195382184571532,-13.442267758294873,-10.21253418589681,-8.493479315080497,-7.645518741140702,0.2879999999999998
-6.640201306613076,-3.5237742021303404,-7.754533374355936,-7.160112413589557,-13.425278885546849,-10.577174994530285,-8.49425713749723,-7.7648369353096705,0.2919999999999998
-6.597594785860588,-3.392059175623088,-7.542334439765297,-7.085872785541675,-13.336614289049216,-10.943384079006128,-8.517047012352414,-7.899823577046098,0.2959999999999998
-6.474661986513052,-3.225225483396234,-7.265937638063037,-6.976014957268658,-13.180641266790685,-11.3032099961735,-8.56431990674927,-8.046442214463147,0.2999999999999998
-6.267830168600686,-3.020970382347676,-6.926462969040787,-6.836384335086561,-12.965797828705332,-11.648456298457516,-8.637713307840144,-8.199618817359104,0.3039999999999998
-5.979289874331199,-2.780966058395725,-6.529925668536857,-6.675380989394473,-12.704468004632437,-11.971365959703657,-8.738190686164906,-8.353987852963321,0.30799999999999983
-5.617648705599144,-2.5113812109837,-6.087450771970033,-6.503763612247753,-12.412485226578829,-12.265199296634968,-8.866094416830084,-8.504579194122801,0.31199999999999983
-5.1980075285402085,-2.2229282755092683,-5.614981638144913,-6.334128564752046,-12.108220348691006,-12.524600209503639,-9.02101629088892,-8.647297432191397,0.31599999999999984
-4.741382595561235,-1.93037922278475,-5.132451615510307,-6.180045936194809,-11.811271316643108,-12.745693224819275,-9.201471784194673,-8.779093991254516,0.31999999999999984
-4.2734944017290655,-1.6515843202280287,-4.6624792974434,-6.054918602878806,-11.540863582142702,-12.92593388698176,-9.404449199260199,-8.897823817811787,0.32399999999999984
-3.8230621996122616,-1.4061381694119186,-4.228753739418731,-5.970727132711393,-11.31417280453243,-13.063826127244951,-9.624989128334771,-9.001889194733955,0.32799999999999985
-3.4198473242136354,-1.2139297294211264,-3.8543610478626587,-5.936895544786233,-11.14485679583407,-13.158689779497973,-9.85600423080815,-9.08986307993474,0.33199999999999985
-3.0927287875009237,-1.0938380220617994,-3.560319813016875,-5.959514356264499,-11.042082757513977,-13.210667054892186,-10.088533247240093,-9.160298506728989,0.33599999999999985
-2.8680376857519545,-1.0627595823139693,-3.3645106849746265,-6.041063651396069,-11.01022803657214,-13.221067725890741,-10.312508539918714,-9.211838958484611,0.33999999999999986
-2.7682421948784204,-1.1349992338928345,-3.2810295149745157,-6.180618097054474,-11.049244411167074,-13.19298934783554,-10.517934449582402,-9.24358560887187,0.34399999999999986
-2.81093619325294,-1.3219028256888974,-3.3198426028499615,-6.374365675092353,-11.155492241608965,-13.13199379826567,-10.69621723790543,-9.255544723547715,0.34799999999999986
-3.008018492089623,-1.6315420188014844,-3.4865558737241713,-6.616207612033802,-11.32275655637181,-13.046561209318536,-10.841337110674711,-9.248945689154521,0.35199999999999987
-3.3649741500664208,-2.068295926839949,-3.7821445662148756,-6.898242856231109,-11.543172761023763,-12.948094362088913,-10.950610039262406,-9.226282552789728,0.35599999999999987
-3.880246096762079,-2.6322710716674598,-4.202585383872863,-7.2110363121499805,-11.807878239068847,-12.850366535362332,-11.024900112887469,-9.191036008169789,0.3599999999999999
-4.544772641492108,-3.318614628818695,-4.7384439735862545,-7.5436843364290365,-12.10732727170431,-12.768448991223817,-11.068272720124602,-9.14713778592513,0.3639999999999999
-5.3418407755932,-4.116879464661989,-5.374569249377372,-7.883798225618813,-12.431333363477696,-12.71729320373451,-11.087205334959679,-9.098327201671498,0.3679999999999999
-6.247438418782465,-5.010661718948098,-6.090100336830184,-8.217592768803396,-12.768998341192134,-12.710239825661825,-11.089564167212973,-9.047594947221988,0.3719999999999999
-7.231242873037097,-5.977712451584316,-6.8589621789945046,-8.530249128912851,-13.108704724023937,-12.757732264201657,-11.083569500557513,-8.996878550767718,0.3759999999999999
-8.258248424694406,-6.9906136814846835,-7.650904659479606,-8.806609622429997,-13.438272108894763,-12.866412899308205,-11.076900392453165,-8.947064579674452,0.3799999999999999
-9.290867326064472,-8.017957244181112,-8.432983595389695,-9.032112183785383,-13.745258973397302,-13.038629779036556,-11.075978810040251,-8.89821859533756,0.3839999999999999
-10.291224365507446,-9.025855624080728,-9.171277469751727,-9.193772399934197,-14.017310712547635,-13.272273450207853,-11.085398771169924,-8.849883469849853,0.3879999999999999
-11.223360223696853,-9.979596426345806,-9.832629918756387,-9.281021394889372,-14.242460208225037,-13.560850533969868,-11.107467662731318,-8.801301086773787,0.3919999999999999
-12.055148881046055,-10.84531254653848,-10.386284881722105,-9.286292035102093,-14.409360983514674,-13.893762375309429,-11.14188471895931,-8.751499909835264,0.3959999999999999
-12.759861150517665,-11.591625919348214,-10.805379065204216,-9.205357067661124,-14.507518753625407,-14.256832415208407,-11.185642056712945,-8.699292016630652,0.3999999999999999
-13.31740456163499,-12.191277492936877,-11.068315715457944,-9.037500685933452,-14.527629904991013,-14.633158470061016,-11.23324916552172,-8.643281502838882,0.4039999999999999
-13.715295092313083,-12.6227443213606,-11.160033467045253,-8.785612846013443,-14.462107473291256,-15.00432795197895,-11.277334832307947,-8.581976451772842,0.4079999999999999
-13.949368693182802,-12.871772350667799,-11.073117011443749,-8.456239716716015,-14.305789588284455,-15.35193642819497,-11.309589133076052,-8.51403341602451,0.4119999999999999
-14.024165107719988,-12.93266688529569,-10.808621001109078,-8.05954826515449,-14.056727625493306,-15.659238830649754,-11.321913083774653,-8.43858594484162,0.4159999999999999
-13.95286936427399,-12.809135980651876,-10.376444622774974,-7.609116384310713,-13.71688954897748,-15.912691743708287,-11.307583414014088,-8.355554329094215,0.41999999999999993
-13.756707873685462,-12.514502910161799,-9.79512257011552,-7.121465162664629,-13.29261275115799,-16.10314529047309,-11.262233774522151,-8.265822304852797,0.42399999999999993
-13.46376028671833,-12.071184049013208,-9.09097618729914,-6.615300272599059,-12.794694094498823,-16.226509756135037,-11.184497909876832,-8.171199740459588,0.42799999999999994
-13.107233090370617,-11.509432324465529,-8.296660944298203,-6.1104957175094095,-12.238081140780938,-16.283820847611878,-11.076230872740496,-8.074150221539748,0.43199999999999994
-12.723310101066899,-10.865433945624277,-7.449216464607776,-5.62690018543436,-11.641190031127582,-16.280717312096215,-10.9422913302685,-7.9773181798268595,0.43599999999999994
-12.348737454499913,-10.178906458358796,-6.587765405817578,-5.183064613842051,-11.02491229930031,-16.22641269577035,-10.789924782534872,-7.882928077121235,0.43999999999999995
-12.018336410932676,-9.490401634498655,-5.751042937712445,-4.795005438905594,-10.411410090755082,-16.132310395652794,-10.627854029902963,-7.792164976578549,0.44399999999999995
-11.762675935017276,-8.838575391159276,-4.974981874145606,-4.475147933766594,-9.822849533607968,-16.010485443921482,-10.465260883743545,-7.704689830799634,0.44799999999999995
-11.60614340520755,-8.25770782560294,-4.290593480793943,-4.231603221858417,-9.280247125034249,-15.872294273443458,-10.31088344156265,-7.618456597765292,0.45199999999999996
-11.565587833465997,-7.775697919715394,-3.722329509506684,-4.067876570451799,-8.802558601290123,-15.727325530003643,-10.172404878692937,-7.529936724047907,0.45599999999999996
-11.649599783264954,-7.412645759108287,-3.2870083088300746,-3.9830020712984116,-8.406041947310815,-15.582788049886702,-10.056188418252102,-7.4347331789774636,0.45999999999999996
-11.858401803487244,-7.180040110740716,-2.9933011485084062,-3.972016270004067,-8.103842726026468,-15.443317393720145,-9.967291477697973,-7.328446674412476,0.46399999999999997
-12.184282645427647,-7.080523025638501,-2.841734468420505,-4.026654897996943,-7.90571970928983,-15.31111586413492,-9.909625929337235,-7.207593188826696,0.46799999999999997
-12.612493879878295,-7.108183287391764,-2.825148252747292,-4.136162067561152,-7.817838791684675,-15.186316650905528,-9.886126096518607,-7.070373255792818,0.472
-13.122509556808057,-7.249309879863161,-2.9295342345043203,-4.288112214587212,-7.84258803117424,-15.067461436694714,-9.898821337899331,-6.91714552086013,0.476
-13.689526005832386,-7.483513694535558,-3.1351591730106882,-4.469158260098354,-7.9783971802595195,-14.95199663472708,-9.948767349664148,-6.7505408796321,0.48
-14.286065147674563,-7.785112569378271,-3.417870150620324,-4.66564361259522,-8.219579916850066,-14.836724045255764,-10.035853676550609,-6.575243730081967,0.484
-14.883554041644246,-8.124679045011229,-3.7504875848769217,-4.864052422273973,-8.556249336094556,-14.718177748336128,-10.158554984584434,-6.397533409787581,0.488
-15.453785579834122,-8.470668717010952,-4.104213481014481,-5.051313338450763,-8.97437587013596,-14.592928105698073,-10.313713770105418,-6.2247030043550335,0.492
-15.970204904036105,-8.791066547646285,-4.450004894179224,-5.215002610130972,-9.456052441044609,-14.457825213936903,-10.496428986897682,-6.064457377600137,0.496
-16.408993685385695,-9.05499404330477,-4.759872533034825,-5.343499796231756,-9.980001492060362,-14.310182683537946,-10.700088438637687,-5.924352883573725,0.5
-16.749934272752085,-9.23421062317368,-5.008061066931263,-5.4261342083405735,-10.522312589186187,-14.147877476400776,-10.916539933403222,-5.811295535201126,0.504
-16.97704040451948,-9.304434246283284,-5.172065193896712,-5.453339766708806,-11.057360482424127,-13.969327712067063,-11.136366636061263,-5.731082348006362,0.508
-17.07895454201401,-9.246415724550713,-5.233447455361233,-5.41682748676711,-11.558840768832617,-13.773328476940726,-11.349228578572678,-5.687968159144495,0.512
-17.049135062150654,-9.0467286528148,-5.1784495706074125,-5.309790238565194,-12.000872753854528,-13.558773736933826,-11.54425304377461,-5.684267477967042,0.516
-16.88587960973041,-8.698270697572582,-4.998417033502609,-5.127163529851166,-12.35914063765688,-13.324349399954045,-11.710486764740105,-5.7200408539252825,0.52
-16.592238919284483,-8.200497002588286,-4.690071938686119,-4.865965656166514,-12.612056428380695,-13.068320066604098,-11.837441489222282,-5.792943930084944,0.524
-16.17585733766252,-7.559411756769819,-4.255660774303383,-4.525721263357628,-12.741919783471173,-12.788526216389478,-11.91575390917462,-5.8983161961222095,0.528
-15.648737011783464,-6.78733038200781,-3.7029746134510795,-4.10893577377453,-12.736022942609548,-12.482654816285246,-11.937940331514968,-6.029551332773238,0.532
-15.026879708785094,-5.902401429444927,-3.04520130399845,-3.6215440356766244,-12.587612775781373,-12.148760921330929,-11.899170735741347,-6.178729621123164,0.536
-14.329726424572847,-4.927849907472085,-2.3005325342790535,-3.073212256244151,-12.296583812067711,-11.785923638131413,-11.797930665638603,-6.337415325682073,0.54
-13.579299895641352,-3.8908810617966907,-1.4914236953241229,-2.4773388685666218,-11.869746851907134,-11.39484335845783,-11.636396154640444,-6.497446772156284,0.544
-12.798980340378385,-2.821192035262431,-0.6434173368880742,-1.850606805653431,-11.320526184542413,-10.978166187606218,-11.420345036754254,-6.651512894021163,0.548
-12.011932524693602,-1.7491080852219518,0.21648060079561837,-1.2120177037713438,-10.668015682902068,-10.54038798640789,-11.158502587037304,-6.793358544657374,0.552
-11.239341649034754,-0.7034863856127629,1.061745449553765,-0.5814818289155834,-9.935466493834069,-10.087334522640377,-10.861372011206583,-6.917594472484622,0.556
-10.498748082525225,0.29033927818215766,1.8683328706815923,0.021811038415683548,-9.148432639243135,-9.625372238074563,-10.539773314225377,-7.019251305203524,0.56
-9.802816790548647,1.2122434398822914,2.6164015558391327,0.5809355549169064,-8.33288581505828,-9.160590894528344,-10.203416133769593,-7.093321723035912,0.5640000000000001
-9.158793700682448,2.0483575545420596,3.291485780953413,1.0824260639794456,-7.513578851102945,-8.698170114763693,-9.859806580385255,-7.13452062021004,0.5680000000000001
-8.56872950179745,2.791364922237044,3.8849869196851428,1.5169859531451015,-6.712820931734475,-8.242035929455705,-9.513666379782277,-7.137381759388566,0.5720000000000001
-8.030389270333071,3.4400684765664318,4.393991063610192,1.8796946725616976,-5.949714515375668,-7.794820572371398,-9.166913218892601,-7.096687317257987,0.5760000000000001
-7.538680769765484,3.998336765124762,4.820492396760063,2.169749989770996,-5.23985036640174,-7.3581097088161025,-8.819171164284715,-7.008158508272496,0.5800000000000001
-7.087411977954246,4.473562171441457,5.170126548750052,2.3897907891315118,-4.59544213097846,-6.93296672651578,-8.468735483147999,-6.8693144638859085,0.5840000000000001
-6.671170915611164,4.874798636591517,5.450553716262789,2.544870832324298,-4.025847237133748,-6.52070172970892,-8.113863716178704,-6.680386462049566,0.5880000000000001
-6.287074546815461,5.210812623866747,5.669707489395224,2.641228678742678,-3.538339824009596,-6.123778377097555,-7.754186941113554,-6.445128535977908,0.5920000000000001
-5.936089996825414,5.488348659430931,5.834203884332361,2.6850853913287196,-3.138911727083131,-5.746662549282763,-7.391963499063869,-6.171318398978176,0.5960000000000001
-5.623661000770637,5.710909955681665,5.948208495313281,2.6817215960946754,-2.8328542989612355,-5.396383521136545,-7.032894573071384,-5.870755234749981,0.6000000000000001
-5.359505953679053,5.878250154608466,6.012950802489613,2.6350000549532853,-2.6249557701791657,-5.0826388797403546,-6.686320998752681,-5.558665997472267,0.6040000000000001
-5.156636984705565,5.986608343770854,6.026904038703428,2.5473550881612326,-2.5192923987439784,-4.817394431327724,-6.3647813327102565,-5.252586334717239,0.6080000000000001
-5.029793216584655,6.029577317202851,5.986506477162971,2.420149761831099,-2.518713791798747,-4.614038624880356,-6.083046407843618,-4.970903215970515,0.6120000000000001
-4.993543661076604,5.999416136734226,5.887231590942827,2.2542482504350545,-2.624180071432593,-4.486210321678646,-5.856807257470172,-4.731289613686608,0.6160000000000001
-5.060314295943748,5.888589946428486,5.7248057287677945,2.0506505441693044,-2.834114376345766,-4.446443241727886,-5.701200300539505,-4.5492439784142125,0.6200000000000001
-5.238558850413046,5.691323044936071,5.496396110959788,1.8110662912855524,-3.1439110765500002,-4.504779966202677,-5.629341189779657,-4.4368997776307415,0.6240000000000001
-5.531231959314775,5.404987044391078,5.201642544808395,1.5383596250854934,-3.5456884220563687,-4.667496085566981,-5.651009687253105,-4.402199780143356,0.6280000000000001
-5.934645257778186,5.031212544236397,4.843475874924417,1.2368686434707312,-4.0282978017287,-4.936034500349813,-5.7715747146992555,-4.448440392089523,0.6320000000000001
-6.437726340177073,4.576676900496206,4.42872055053213,0.9126533347418961,-4.577537018156178,-5.306209412405435,-5.991197594031338,-4.574120117810578,0.6360000000000001
-7.021698637590209,4.0535378305925445,3.9684759474818243,0.5737092331461398,-5.176509151133068,-5.767741611543613,-6.304348223307448,-4.773022090410813,0.6400000000000001
-7.660260103650401,3.479443239754593,3.478206953465813,0.2300988374719899,-5.806128590928353,-6.304235599371511,-6.699720260674234,-5.034527866841406,0.6440000000000001
-8.320405380862312,2.8769985668531026,2.9774017327685915,-0.10614228968599537,-6.445849010368137,-6.8937516593574495,-7.160680855679867,-5.344238063460879,0.6480000000000001
-8.964030570208374,2.272586687122666,2.48865131285553,-0.42149062364114176,-7.074698306897962,-7.510089305084534,-7.666361924892154,-5.684985510021753,0.6520000000000001
-9.550345745643845,1.6945438579621728,2.0361074714867025,-0.7018903220924808,-7.6726204422872915,-8.124758522830827,-8.193370211317651,-6.038240653342417,0.6560000000000001
-10.038941656084283,1.1708532803172345,1.643439395607703,-0.9341052978740552,-8.22198859440936,-8.709428179722982,-8.717919369286417,-6.385775448607815,0.6600000000000001
-10.3931962619813,0.7266460284222322,1.3315539576888378,-1.107254801733321,-8.709048543055268,-9.238496259706325,-9.218054778187437,-6.711346748483752,0.6640000000000001
-10.583618456689766,0.38185101468536775,1.1164154269000106,-1.2142511801856635,-9.12502476282359,-9.691377332517568,-9.675599074733752,-7.002125632254392,0.6680000000000001
-10.590720761056923,0.14931140742617277,1.0072897686530802,-1.2528714062024564,-9.466675169918386,-10.054152933793967,-10.07749723507679,-7.2496373048236356,0.6720000000000002
-10.407079149377271,0.03360300094844071,1.0056607924785779,-1.226273543043594,-9.73619084943416,-10.320360525085965,-10.4163686651278,-7.450073827374281,0.6760000000000002
-10.038357610093476,0.030671769308434627,1.104942836713553,-1.1428894142558286,-9.940473362224006,-10.490872189903188,-10.690248245693827,-7.603977140510541,0.6800000000000002
-9.503220063036759,0.1282788132077175,1.2909776445058583,-1.015752153427349,-10.089947747065974,-10.572987814211958,-10.901668004078296,-7.715425777023309,0.6840000000000002
-8.8321901598411,0.30713082106308054,1.5431868786792662,-0.8614159507634774,-10.197147197772825,-10.578991707715595,-11.056344835578912,-7.790950194345295,0.6880000000000002
-8.065622176426652,0.5425091748474116,1.836186534655234,-0.6986653543856773,-10.275310904525854,-10.524465328787874,-11.161767913411161,-7.838416110121861,0.6920000000000002
-7.251001625879201,0.8061996345637219,2.1416642969059576,-0.547185988011174,-10.33717325086903,-10.426611129328993,-11.225925664236108,-7.866052972763429,0.6960000000000002
-6.4398113708854625,1.068549934504365,2.430354933018732,-0.42630448945140476,-10.394027128623232,-10.302756590785457,-11.256312643290919,-7.8817033400954015,0.7000000000000002
-5.684200249050161,1.300512038514837,2.673984948949742,-0.35384907386534925,-10.455066758594956,-10.169121588479907,-11.259262121195906,-7.892283542658959,0.7040000000000002
-5.033693737879728,1.475536844935121,2.847070803265575,-0.3451639279831751,-10.526986168217316,-10.039878589650973,-11.239595049269427,-7.903414624205638,0.7080000000000002
-4.532183871829002,1.5711898221106373,2.928452837317856,-0.412320842897655,-10.613817363555324,-9.926511611648186,-11.200556603858182,-7.919199271824546,0.7120000000000002
-4.215405052768075,1.570375025707437,2.902459744130058,-0.5635743211026014,-10.71699942631397,-9.837462162232455,-11.143997715894715,-7.942143197067984,0.7160000000000002
-4.109034690222412,1.462106555920713,2.759642160511315,-0.8030816816685213,-10.835651758053107,-9.778025447898035,-11.070732902094479,-7.973212744856207,0.7200000000000002
-4.22747555044387,1.2418329073019665,2.4970730935165526,-1.1308716908406575,-10.966992003093083,-9.750439539131522,-10.980981315470409,-8.011989217937403,0.7240000000000002
-4.573314223488968,0.9113699252450322,2.118258545684834,-1.5430202412697525,-11.106818903385788,-9.754109443810684,-10.874798568876017,-8.056857745940293,0.7280000000000002
-5.137423374717123,0.47851560799465487,1.6327184078948918,-2.031990863332095,-11.24998714987993,-9.785924928298316,-10.752435544949904,-8.105178280594238,0.7320000000000002
-5.899674160736112,-0.04358891774893836,1.0552910429332747,-2.5871136336508394,-11.39082864764144,-9.840648383972592,-10.614598956881483,-8.153421806036185,0.7360000000000002
-6.830220911084817,-0.637300454646792,0.40520635400964533,-3.1951882371425206,-11.523501668917195,-9.9113495813317,-10.462613339502319,-8.197286496547065,0.7400000000000002
-7.891286044371974,-1.2814579462487172,-0.295015459528138,-3.841183707522128,-11.642254827592737,-9.989842163010977,-10.29848051203036,-8.231807687745974,0.7440000000000002
-9.039313702178802,-1.9524263978473209,-1.020750461887757,-4.508969995674706,-11.741578037080954,-10.067050359610505,-10.124810222520415,-8.251444448703815,0.7480000000000002
-10.227319178916803,-2.6251102133509914,-1.7464386836070007,-5.181992321630929,-11.816210813803977,-10.133241477425077,-9.944591364766577,-8.250105324681424,0.7519999999999998
-11.407275218978256,-3.273884960071025,-2.446660615837798,-5.843823290682035,-11.861018100178896,-10.178119395943025,-9.760813021391938,-8.22110422303026,0.7559999999999998
-12.532427604008433,-3.8734593176158088,-3.0971076718597597,-6.478584114094074,-11.870804991454278,-10.190853530540178,-9.576005309007222,-8.157099472613758,0.7599999999999998
-13.55947087236529,-4.3997148760414575,-3.6754655503944287,-7.0712684556972,-11.84017581332827,-10.16016118421305,-9.391803440075861,-8.050114034038028,0.7639999999999998
-14.450522965670116,-4.8305661514545015,-4.162225941565083,-7.608014998211797,-11.763534132964262,-10.074553340490807,-9.208630807492545,-7.891736260400398,0.7679999999999998
-15.174834144690962,-5.146860008115485,-4.541425724321574,-8.076374690284833,-11.635288557956443,-9.922818413659837,-9.025569413913576,-7.67356669130359,0.7719999999999998
-15.710152652317543,-5.333296673797595,-4.801289256924671,-8.465602285256834,-11.450277857006133,-9.694762068900072,-8.840444043490425,-7.3879105158792076,0.7759999999999998
-16.043630799800262,-5.379285500974,-4.934701227342869,-8.766947704710851,-11.204343649096614,-9.382129643791792,-8.650078726505804,-7.028618071020755,0.7799999999999998
-16.172116171076112,-5.27957158623042,-4.9393860619448215,-8.973854882450626,-10.894888460599972,-8.979536214427856,-8.450614698378097,-6.591889152080832,0.7839999999999998
-16.101701672189453,-5.0344563545845125,-4.817679029202763,-9.081964091666038,-10.521234298081701,-8.485189685815666,-8.237766457613697,-6.076849353929576,0.7879999999999998
-15.846528657280949,-4.649519936067652,-4.575867624694702,-9.088886838990424,-10.084673003989959,-7.901252193391592,-8.006956454714244,-5.485792579709967,0.7919999999999998
-15.426990722388904,-4.13488752297995,-4.223206196086826,-8.993828075548238,-9.588223660238114,-7.233804837470451,-7.753365073499134,-4.824102940458419,0.7959999999999998
-14.867600854213176,-3.5041976004368958,-3.7707971998924434,-8.797203118633151,-9.036215108772296,-6.492495857875784,-7.472006952555934,-4.0999563828108,0.7999999999999998
-14.194835415122679,-2.7734943299599566,-3.230566388892964,-8.500414542308675,-8.433862862367988,-5.690024446239061,-7.157970472607252,-3.323936393041482,0.8039999999999998
-13.435249386378686,-1.9602648105852385,-2.614532196916306,-8.105916807951074,-7.787000843126318,-4.841619223515058,-6.806919833926232,-2.5086802405177813,0.8079999999999998
-12.614058553871965,-1.0827607481165167,-1.9344729651773398,-7.617599337469921,-7.1020528670465275,-3.9645986968395786,-6.415854647131915,-1.6686046928969707,0.8119999999999998
-11.754225032172979,-0.15960352871429162,-1.2019489601255862,-7.041382612872974,-6.38620727087961,-3.077978402332386,-5.983984510748172,-0.819664660904035,0.8159999999999998
-10.875936167860035,0.7904537055803971,-0.42851012202384364,-6.385813591975542,-5.647656103854626,-2.2019952769411004,-5.513481245908354,0.020971395905944767,0.8199999999999998
-9.99631549974006,1.7487633314735378,0.3741074082000613,-5.66243806905568,-4.895747473776988,-1.3574303250940423,-5.009889300921719,0.8354341813876633,0.8239999999999998
-9.12926808526826,2.69709426751292,1.1939063464724136,-4.885832066298511,-4.140987727311419,-0.5647297576235344,-4.482109496077616,1.6058597190414363,0.8279999999999998
-8.285482159344491,3.617960119013526,2.0186459247923834,-4.0733304300526445,-3.3949570305371823,0.15692521467991205,-3.9420459369761094,2.315164955968603,0.8319999999999999
-7.472691141218295,4.494823373405938,2.8358272828638165,-3.244602267293826,-2.6702746360497605,0.7903720300198742,-3.404112629436255,2.9476995746514936,0.8359999999999999
-6.696281191410396,5.3120584307950445,3.632533309945963,-2.4212237201887854,-1.9807123265796147,1.3208663900111466,-2.8847739067208407,3.4896257452451778,0.8399999999999999
-5.960220349708365,6.05467447713588,4.39511623179511,-1.6262993413688638,-1.3414288423099918,1.7360997428746812,-2.4021688148696247,3.929010718781135,0.8439999999999999
