Fz,C3,Cz,C4,Pz,PO7,Oz,PO8,time_sec
0.6891645896479363,19.823183905835,-1.6152328879281395,1.4107723160168628,14.24445463897935,8.118755305267902,8.618451500640035,8.19837065796209,-2.0
0.3624715334850152,19.879025785107306,-1.7343874836004336,1.6896706240808144,14.190647585449186,8.211691338269885,8.585446041836873,7.971938040717092,-1.996
0.0586125464253889,19.993309680150766,-1.788491771252641,2.0540095746841067,14.2047089768265,8.340658292149442,8.571754269390468,7.789969413540779,-1.992
-0.20279565911428143,20.16637568427343,-1.7717711389260031,2.484621550650673,14.27840514706034,8.49436567772686,8.567224835750409,7.647787016639467,-1.988
-0.40213513381623484,20.398083598172203,-1.6799044245470285,2.960636345582833,14.40160179272643,8.66236957781981,8.562708710778914,7.540166179784216,-1.984
-0.520880731981057,20.687901932536843,-1.510002390628047,3.461062217664923,14.563366935546087,8.83573664569227,8.551084070825624,7.462045181789233,-1.98
-0.5429073075629044,21.034627669535215,-1.2608551596001247,3.9659989412380536,14.752718953604779,9.007208047855826,8.52774370586779,7.4088177924902565,-1.976
-0.45585285102858614,21.435835721936666,-0.9333566407987357,4.457485581902172,14.95903043708443,9.170949130538956,8.49056542968627,7.37627600819935,-1.972
-0.2523316533908229,21.887233458846982,-0.5309486600848907,4.920072193186766,15.172185011824167,9.322062638606967,8.43949080315985,7.360361481933605,-1.968
0.06920680380432491,22.382119868844644,-0.05991536550679152,5.341234129721445,15.382620652957732,9.4560792484808,8.375893494176879,7.3569094792466965,-1.964
0.5041246520525512,22.911116143566158,0.47059962091060026,5.711721343240844,15.58137878632551,9.568613162797076,8.30192012958682,7.361531838633741,-1.96
1.0418083121093809,23.46225531505202,1.048899581012934,6.025871239108038,15.7602260337845,9.655290725320578,8.219938430876773,7.369706250969878,-1.956
1.6664066716536492,24.02142297075441,1.6613216106291466,6.281844923440147,15.911850634063631,9.71195518754403,8.132151378539966,7.3770505615270325,-1.952
2.357977518425335,24.57306540728649,2.292998722169376,6.481706028219957,16.030087581541306,9.735060596432954,8.040364906819269,7.379694979004245,-1.948
3.093884927983421,25.101041575761514,2.9286692131517817,6.631258084359352,16.110105846375717,9.722115704624871,7.945851651412618,7.374634853498006,-1.944
3.850277709159919,25.58948176278275,3.553409750555255,6.7395748757703915,16.14848766975675,9.67202423929335,7.849235984449734,7.359944741090442,-1.94
4.603487518028687,26.023523441895435,4.153189336484968,6.81818710757146,16.143139398141432,9.585188276443148,7.750333646447234,7.334756096311405,-1.936
5.331224131882401,26.389835206634533,4.715185873603765,6.879937140180011,16.093008428900504,9.463303850923117,7.647916936113243,7.298953850509453,-1.932
6.013517558237087,26.676918494610522,5.227880351942221,6.937588985216869,15.997648140984955,9.308878644901235,7.539440868887823,7.252632378690973,-1.928
6.63343750115006,26.87526738915066,5.681024501382065,7.0023645464180495,15.856749490271753,9.124608347263667,7.4208338294933185,7.195444977744619,-1.924
7.1776698644692045,26.97752243925352,6.065626368976546,7.082630350345121,15.669802100862768,8.912813588012279,7.286492781934636,7.126040988892872,-1.92
7.637022292227679,26.978743443912283,6.374086091678155,7.182950901660774,15.436029011596128,8.675131642379533,7.129603165620114,7.041777594869605,-1.916
8.006876080403204,26.876855689188357,6.600546683512733,7.303656456638905,15.15466332667791,8.412581234762056,6.942830564601413,6.938819722713269,-1.912
8.28753853691886,26.67323442504033,6.7414385065848235,7.440976748939145,14.825539070781682,8.126011169539092,6.719334826316138,6.81263670177281,-1.908
8.484416205612533,26.37332648670619,6.7961308981971165,7.587705080130725,14.4498926732683,7.816846563641934,6.453973347680357,6.6588109464813,-1.904
8.607934692820688,25.98718221609757,6.767574510617652,7.734293958109501,14.031232199632369,7.487984024518421,6.14451126998684,6.474014942733354,-1.9
8.673153774739093,25.52977114914979,6.662809749599575,7.870235279567722,13.576119777112416,7.144659504580933,5.7926455546699325,6.256987587670707,-1.896
8.699041060072071,25.020959794270173,6.493211613247754,7.985534051976798,13.094712876640834,6.795108583226667,5.4046665491390184,6.009337998144851,-1.892
8.707371660071102,24.48503689766188,6.274339906005203,8.072052795757477,12.600920147677256,6.4508531522175,4.991614817460363,5.736019123337645,-1.888
8.721242085255662,23.949704427400764,6.025291162512397,8.12451253455284,12.112065466803598,6.126492080856597,4.568849150228367,5.445356566145562,-1.884
8.763252668333836,23.444535728846272,5.7675295966694184,8.141009866766849,11.648038240083693,5.838961338325686,4.155037085563389,5.148604536072165,-1.88
8.853514714915436,22.999022788329473,5.523296516730689,8.123032629026683,11.230023578633814,5.606346754195829,3.770698752634171,4.859115603110503,-1.876
9.007724824343464,22.640438587273547,5.313807609846564,8.075073456096016,10.879001981238652,5.44643058768182,3.4365309801334223,4.591304239421329,-1.8719999999999999
9.235570674807137,22.391780292044192,5.157495494262092,8.004000739977434,10.614241633574371,5.375189434518462,3.171768622554117,4.359612525350842,-1.8679999999999999
9.53968163072038,22.270029336917318,5.068531299822859,7.91834128591007,10.451974965582119,5.405435314722666,2.9927989119402016,4.1776458415462985,-1.8639999999999999
9.915239803553996,22.284892102480487,5.055786607418703,7.827582159123341,10.404381177659689,5.54573128501584,2.912157256114582,4.057563781288956,-1.8599999999999999
10.350260327504051,22.43810265373155,5.1223085360215554,7.741542410530363,10.47891958997542,5.799646777808351,2.9379342790107104,4.009722747018574,-1.856
10.826466164482298,22.723301960041198,5.2653051506179445,7.669823306206265,10.678000135974438,6.1653681541898,3.073548039161485,4.0425035201928345,-1.852
11.320637687012136,23.126466149892423,5.476590895791875,7.621328205422692,10.998949070960544,6.635656360828183,3.31780281828282,4.162235983525159,-1.848
11.806304264630578,23.626832917505535,5.7434186095732995,7.603843774946636,11.434224684064512,7.1981385172523185,3.6651620032915875,4.373147360521949,-1.844
12.255645871267475,24.19825574122508,6.049610466345072,7.623678446584614,11.971843132847079,7.835915694589121,4.106182590924192,4.677287158054963,-1.84
12.641473066841748,24.810891886679503,6.376884499935439,7.685353713683566,12.595975924935411,8.528453318075377,4.628071214276187,5.074404447129932,-1.836
12.939153386248455,25.433106920354565,6.706260790338359,7.791344063941789,13.287679164408246,9.252698144422265,5.215325502619507,5.56177263015162,-1.832
13.128359226602095,26.033465111047377,7.019432950648987,7.94187118332312,14.025717820716025,9.98434919674243,5.850429911765523,6.133980548345235,-1.828
13.194530185734413,26.582674315000926,7.300008491836452,8.134776910712345,14.787456812138965,10.69920515164452,6.51458509402229,6.782734369129373,-1.824
13.129967810105436,27.055361558199493,7.534548148681981,8.365516377097427,15.549798739192996,11.374513666585552,7.188460926020466,7.496735237991263,-1.82
12.934506610298838,27.43156629815364,7.713358577986085,8.627314657626703,16.290148213973254,11.990250651468735,7.8529688416576064,8.261706607929453,-1.816
12.615725819104503,27.69784874496786,7.831006196208556,8.911508486757908,16.98736850775528,12.530251375051932,8.490038769866613,9.060632056548956,-1.812
12.188681089687838,27.84792328330822,7.88652257563919,9.208053674159615,17.62267044006615,12.983101463934664,9.083357679227838,9.874224413630861,-1.808
11.675153926365658,27.882753448776082,7.883277903803548,9.506140132891458,18.180354391661663,13.342690494720857,9.618999439552693,10.681596790508543,-1.804
11.102449224515077,27.810093678650123,7.828523334676521,9.794841819373701,18.648333204727255,13.608352639979378,10.085873669808299,11.461072253217438,-1.8
10.50181164098973,27.64352327066223,7.732640303843062,10.063737884541741,19.01839336612652,13.784566379964048,10.47594568307218,12.191058779661086,-1.796
9.906561649206997,27.401066054914043,7.608164125051637,10.30345501527397,19.28618335638232,13.880237813890409,10.784211239265593,12.850916450619765,-1.792
9.350066869337514,27.103516259690135,7.468662123807666,10.506090751298311,19.45094198833736,13.907635160597913,11.008438469310377,13.42174879297617,-1.788
8.863678340681568,26.77261062990507,7.327556690932286,10.665495383803842,19.515007142606958,13.88108027906626,11.148723676166654,13.887072140095967,-1.784
8.474786253462442,26.429211757529902,7.197002632842687,10.77742497295926,19.483184629291667,13.815542297085806,11.206951844684681,14.233362226589044,-1.78
8.205172638764633,26.09168860684888,7.0869456787388,10.839616116378307,19.36209366711031,13.725306813026528,11.186288324699538,14.450525300463875,-1.776
8.06983198563905,25.77467371708458,7.004481936104322,10.851847573088738,19.15961321209588,13.622888890517673,11.090826767945225,14.532355783815353,-1.772
8.076379693276875,25.48832884976326,6.953595475895072,10.816031633527553,18.884518863858123,13.518309787141161,10.925467952121076,14.47700557768304,-1.768
8.225084331198731,25.238171600691544,6.935284963348203,10.736331703387492,18.54633560441358,13.418782278801103,10.696022435147762,14.287419495843258,-1.764
8.509466451935792,25.025426111084943,6.948020664915234,10.619254266384415,18.15536151262423,13.328773315582163,10.409450732501984,13.97162484155506,-1.76
8.917320096336228,24.84777694281786,6.988411297899756,10.473624989030982,17.72275841882838,13.250348862783682,10.074102168204028,13.54272812320805,-1.756
9.43194626479709,24.700338900824203,7.051913213624239,10.310335109954254,17.26056716202422,13.183659215826998,9.699796429002099,13.018477565233427,-1.752
10.033365339079884,24.57662943629354,7.133401438041163,10.141750167873099,16.7815047949553,13.127408834312979,9.297617281825087,12.420301616860172,-1.748
10.699323000153564,24.469367479145802,7.227466615623864,9.98072865244325,16.298457510399125,13.07919273835065,8.879364354521366,11.771835388884414,-1.744
11.406015127885652,24.371018307387374,7.328401907914034,9.839301215708378,15.823689771393488,13.035668505375808,8.456724935084425,11.097082699516678,-1.74
12.12858366419839,24.274115169327313,7.4299592152517775,9.72717425822523,15.367903949165873,12.99262998110832,8.040338659101016,10.418482502098101,-1.736
12.84152134098035,24.171462933471236,7.525033610021082,9.650296973632466,14.939353343698983,12.945106865515847,7.638980953585038,9.755199080617102,-1.732
13.519144445265752,24.056345103014934,7.605454414683744,9.609744927804558,14.543211394557375,12.887610960333314,7.2590654818102465,9.121913977057758,-1.728
14.136260832755674,23.922824916816097,7.6620293652585145,9.60113223403409,14.181342654486684,12.81459660991323,6.904580054371586,8.528286215732196,-1.724
14.669096868895428,23.766175227848777,7.684923884063622,9.614684409513833,13.852531527573618,12.721125097439128,6.577458693012122,7.979106826559985,-1.72
15.096469117087551,23.583407718399968,7.664377149075794,9.636000906825679,13.553127541331344,12.603645880625573,6.278288101229311,7.475042793246556,-1.716
15.401109339032914,23.373815802517598,7.591676150920399,9.647428604385754,13.277984081844187,12.46075418959762,6.007177242839545,7.013775100850364,-1.712
15.570987901131055,23.13941050994241,7.460242805072585,9.629873364227691,13.021516525837109,12.293766580763304,5.764596016397776,6.59129960493424,-1.708
15.60044209878078,22.885121868355643,7.266648948102052,9.564809553990811,12.778689571239141,12.106971197471152,5.552005689146964,6.203169918472188,-1.704
15.490915344640777,22.618664945638915,7.011371862436573,9.436220294855854,12.545763391927139,11.907453266136907,5.372148069340649,5.84550174816921,-1.7
15.25116218517603,22.350032677173456,6.699149332223651,9.232227260633655,12.320687288427974,11.704469455320796,5.228930191355498,5.515621184534649,-1.696
14.89686689166444,22.09066530772506,6.338881877279434,8.946246783886455,12.103120958042448,11.508439809153982,5.126933800919907,5.21232364002116,-1.692
14.449727768971579,21.852426054691847,5.94312819702832,8.577610788976264,11.89415758069523,11.32971460914869,5.070670364556855,4.935797144786493,-1.688
13.936133747099285,21.646548230964612,5.527305968782063,8.131675554441573,11.69587963903198,11.177319102039585,5.063753198298703,4.687318229705814,-1.684
13.385585696317372,21.48270131020189,5.108726040313258,7.619486851042065,11.510880906110158,11.057867534224515,5.108149383840349,4.468831827666801,-1.68
12.829008297631495,21.368277630989933,4.705571886069889,7.057087666216738,11.341856267131746,10.974789629229244,5.203627376116606,4.282498689548362,-1.676
12.29708338695572,21.307957712440523,4.335914679078112,6.4645637009618,11.19132446207544,10.927956970916606,5.347467803169509,4.130268379588792,-1.672
11.818713779741595,21.303573415681175,4.016830502886605,5.86492086307726,11.061513186511533,10.913741608127225,5.534465252620173,4.013520512402078,-1.668
11.419682892567456,21.35423775354283,3.7636454908901746,5.282863639882844,10.954387573220695,10.925473773895073,5.7572013441251215,3.9327930013654466,-1.664
11.121514077853563,21.456648294778464,3.589279518297703,4.743497769334667,10.871742386960511,10.954190860993782,6.00650693862465,3.887575015617905,-1.66
10.940490941620213,21.605431222469605,3.503623508318299,4.270949506262266,10.815237022248168,10.989515513708042,6.2719810696160545,3.87610760659476,-1.6560000000000001
10.886813702907867,21.79341284856629,3.5129057944369855,3.886913125713729,10.78626893639773,11.020503771430233,6.542437240507742,3.895142056413617,-1.6520000000000001
10.963933669853127,22.011784345713966,3.6190769464974726,3.6092068924573453,10.785659286929402,11.036368934663344,6.806214698899148,3.93966279896197,-1.6480000000000001
11.168180191555125,22.250218596100098,3.819323876941981,3.4504913991320656,10.813222274175425,11.027073301235445,7.051386120001195,4.002654054811188,-1.6440000000000001
11.488818981534378,22.49705206922128,4.105860459802176,3.417331428016793,10.867351537119061,10.983836138457981,7.265958246337244,4.075027111423357,-1.6400000000000001
11.908640084932848,22.739636713112123,4.46611450079548,3.509744688099488,10.944755823853997,10.899608779926263,7.438166790047521,4.145803549617381,-1.6360000000000001
12.405089360153719,22.964909982441387,4.883358697391414,3.721298347508204,11.040424355423403,10.769529790057918,7.556919488504721,4.202584679520441,-1.6320000000000001
12.951862918070878,23.160153777044957,5.337747609107537,4.039721232396819,11.147830545590983,10.591322448769393,7.612373142528494,4.232265356517872,-1.6280000000000001
13.520804953741205,23.313842836938573,5.807647268632652,4.447921319775895,11.259318282006257,10.365556074020867,7.596571439381299,4.22189855065057,-1.624
14.083902589678416,23.41644386874496,6.271095544380529,4.925251377941276,11.366577100924749,10.095678739140956,7.504037989987867,4.159595651531398,-1.62
14.615168336962407,23.4610349374213,6.707223493837627,5.448862730230868,11.461113645863273,9.787755416579124,7.3322229049312275,4.035357682025071,-1.616
15.092240990449417,23.443668703362636,7.097503017805761,5.9950274186244465,11.534664793603488,9.449912744633666,7.081741508214523,3.8417685745748607,-1.612
15.497599305618431,23.363476943221816,7.426745002209127,6.5403689446766196,11.579549962171972,9.0915737898337,6.756401214706955,3.5745250592727302,-1.608
15.81934132789226,23.222571169422906,7.6838240228112555,7.062987217825989,11.588995251021785,8.722622610260688,6.363055550780156,3.232804789589181,-1.604
16.051520681144705,23.02581332656167,7.862131906456294,7.543476323514544,11.557464588241999,8.352644136032033,5.911335885826131,2.819476224468355,-1.6
16.194053100773306,22.78051362540437,7.959765422601579,7.965820511875424,11.481009498361507,7.990345004134473,5.413299091812306,2.341140898833796,-1.596
16.252221725739442,22.496075635273115,7.979445564062806,8.318130392132945,11.357614632742226,7.64319714216985,4.883006072321327,1.8079838881467716,-1.592
16.235825586466337,22.18357274016003,7.9281602854643936,8.593161856302423,11.187485599574828,7.317281869014642,4.336019988557053,1.2333982130919037,-1.588
16.1580366089143,21.85522525423093,7.816530300072465,8.788556011346152,10.973212866186232,7.0172697739492165,3.788795700724672,0.6333516252551732,-1.584
16.03405558288527,21.52376350875694,7.657923493539546,8.906756203957727,10.719759471253376,6.746464447929554,3.25794022223389,0.025491535598329545,-1.58
15.879681738228163,21.201701280249505,7.467382498199336,8.954596890430361,10.434258328006822,6.506864327123904,2.7593657272962377,-0.5719592252931326,-1.576
15.70992625580164,20.900584729492653,7.260466817911531,8.942606620173335,10.125651089810942,6.299236988415731,2.3074162237863534,-1.1413929803778586,-1.572
15.537798987812275,20.630303092718055,7.052127627221957,8.884104718917763,9.804233271008611,6.123228495515441,1.9140923921691246,-1.6669236625843193,-1.568
15.373377171607942,20.398542807900345,6.855723382054958,8.79418624194407,9.481178155318124,5.977535183050279,1.5885014293011046,-2.135241260982833,-1.564
15.223229690970314,20.210445772923656,6.682255800726542,8.68868412284347,9.168098817373961,5.860153260988537,1.336621138465319,-2.536097318432821,-1.56
15.090223443650983,20.068501039688805,6.539866662673997,8.583175995331894,8.876678825168279,5.768699663412271,1.1614028721287053,-2.8623854998888105,-1.556
14.97368053481866,19.97265609677183,6.433588694589996,8.49206897468369,8.618360514025445,5.700766310072475,1.0631590006653948,-3.1098737779853742,-1.552
14.869800482619956,19.920589496730614,6.3653006552212625,8.427762461084678,8.404040475295519,5.654241222117296,1.040111819792503,-3.2767219906734355,-1.548
14.772238605530271,19.908068050589176,6.333822420376106,8.399881877503645,8.243714566630716,5.62753005271125,1.0889590721841504,-3.3629435946865094,-1.544
14.672755577472083,19.929335135165974,6.335112420404509,8.414606403961265,8.146053740756473,5.61965308498653,1.2053537042847413,-3.3699280395053592,-1.54
14.561903653981446,19.977522787824793,6.362575300749054,8.47415891461939,8.117953256686713,5.630251014169896,1.3842728248773366,-3.300062596816216,-1.536
14.429750320573293,20.045109234094298,6.407511659963492,8.576546605891826,8.164135969695065,5.659563287738551,1.620307056418642,-3.1564366885800204,-1.532
14.266635177661428,20.124432259063536,6.459722815635534,8.715615922459358,8.286880142481367,5.708423739549544,1.9079043803578426,-2.9426075187559007,-1.528
14.06392470298053,20.208230693729792,6.508238244593471,8.881431947894319,8.485898544757829,5.778271012760346,2.2415689927454086,-2.662434207334458,-1.524
13.814705680960005,20.290153632832013,6.542096670378463,9.060944358402228,8.758353777456037,5.87113591600793,2.6159866749968743,-2.3200091630809703,-1.52
13.514360139837793,20.365171557272305,6.551104917781256,9.238879734074755,9.098978301265612,5.9895671254198675,3.026050161955039,-1.9197074966628662,-1.516
13.16098400103901,20.429843102791548,6.526515504603586,9.398798499536085,9.500274668075594,6.136483185736253,3.466786894864738,-1.4663445188254134,-1.512
12.755626379017771,20.482416118505363,6.461581251441125,9.524253655821814,9.952781879883302,6.31496577744981,3.9332215661795424,-0.9654026129725158,-1.508
12.302323611155117,20.52275314774835,6.3519453907212755,9.599972563612733,10.445389671861554,6.52801325184731,4.420213336546387,-0.42328115723706716,-1.504
11.807891906058936,20.552070646656876,6.195815786890434,9.612959089140238,10.965667505525232,6.778256587624658,4.922293120191986,0.15246765588868763,-1.5
11.281450460027704,20.572488661245117,5.993878348665471,9.553405878808336,11.500171376249545,7.067628026610229,5.433511073660309,0.7529475628204215,-1.496
10.7336871614016,20.58641929926921,5.748944549553452,9.415332330614289,12.034713587674782,7.396986151680321,5.947304770525065,1.367807987051517,-1.492
10.175937382802593,20.59586887967558,5.465387848574884,9.196913161136296,12.554616308677554,7.765732432576812,6.456409675695045,1.9852604397521685,-1.488
9.619192438243134,20.60176277379344,5.1484713711032555,8.900508137779584,13.044992243876953,8.171477546902894,6.952838176661666,2.592261703183428,-1.484
9.073168653183854,20.60340468095787,4.80368351433932,8.532428312827998,13.491091991469048,8.609815574474679,7.427944366872673,3.1748786929107795,-1.48
8.545555593251775,20.598159001857073,4.436185351033594,8.102484617722938,13.878739951417321,9.074249297853994,7.872582255685128,3.7188216649093664,-1.476
8.041538638322477,20.581414372669105,4.050451639976466,7.623375862891379,14.194867553407128,9.556297882665843,8.27736989174213,4.210120664036822,-1.472
7.563660846468381,20.546854950153147,3.65015991898389,7.109983679747866,14.42814299043044,10.04580976402016,8.633080798937732,4.635919096437938,-1.468
7.112043542243583,20.48702593487476,3.2383400373662385,6.578636225033058,14.569673977664229,10.531482648602433,8.93117006818282,4.985343217292127,-1.464
6.684924527988087,20.394129793453292,2.817740329292397,6.046376270098747,14.613720681162638,11.001552796301986,9.16439817199994,5.250369177128821,-1.46
6.279414857847269,20.26094475796058,2.3913160764840207,5.530238284128952,14.558318883759332,11.444572791998581,9.32746531571472,5.426571585969698,-1.456
5.892339770611919,20.081735162986558,1.9627218757041074,5.046521246205,14.405700466890517,11.850172333638497,9.417541925064155,5.513624498141607,-1.452
5.521025244032207,19.853030655068277,1.5366983313284936,4.610045614721313,14.162416574131896,12.209700174313587,9.43458815833239,5.5154448913411285,-1.448
5.163915499703915,19.574182852117918,1.119277080139992,4.233401236769957,13.839112040685839,12.516674123709949,9.381394153613227,5.439916019801668,-1.444
4.820947958473844,19.24765067661592,0.7177711928926946,3.9262203220600385,13.449955037319278,12.767008424924088,9.263332512170262,5.298196853138225,-1.44
4.493658225638308,18.879005761393522,0.3405564442594648,3.6945359358157126,13.01177942311706,12.959029421558066,9.087876713767555,5.103701453820463,-1.436
4.185030726673226,18.476680018702623,-0.0033229864176291812,3.5403033014221506,12.543038082982946,13.093320287998056,8.863982245525852,4.870896865823398,-1.432
3.8991472781937877,18.05149865823283,-0.30467131328998204,3.461164567813796,12.062687845536997,13.172450032192486,8.601439833830701,4.614099571160387,-1.428
3.6407114479292004,17.616054123664934,-0.5547147293868081,3.4505261622389294,11.589128386471176,13.200641922882893,8.310295633865424,4.346441745818825,-1.424
3.414532444000723,17.183976817703513,-0.7456641985650924,3.497988784205537,11.13929759557169,13.183423154918936,8.00040026652735,4.079133938660575,-1.42
3.2250362738998475,16.76914912067001,-0.8712109457439752,3.5901254247688623,10.727989060604171,13.127276966442556,7.681108476549828,3.8210840326228976,-1.416
3.0758482105869738,16.38490373800334,-0.9269127482720817,3.711557324832489,10.36742025242206,13.03930601046231,7.361121994455818,3.578868043626557,-1.412
2.9694745569968775,16.043254321697205,-0.910438543128682,3.8462453152827027,10.067054790611074,12.926919565869179,7.048458566563468,3.3570049599132994,-1.408
2.907097380131809,15.754210011014479,-0.8216533288805555,3.978887238923433,9.833657190679288,12.797560117871377,6.750521176482351,3.158456047917165,-1.404
2.8884690502914303,15.525205910436647,-0.6625587836865646,4.096278412746,9.671517845284757,12.658466226296417,6.474212056609879,2.9852309677280657,-1.4
2.9118638103271635,15.360648680497073,-0.43714410768203865,4.188465394793507,9.582744159431734,12.516439179086944,6.226001416455733,2.8389509660883423,-1.396
2.9740425502460464,15.2615655805515,-0.15121092129980931,4.249538931048675,9.567508977329465,12.377576446374349,6.011861902657177,2.7212310239534436,-1.392
3.070229189000761,15.225376003328508,0.18780245081479485,4.27798572289682,9.624199353711623,12.246974775525118,5.837036853926146,2.633816245954265,-1.388
3.1941560768179755,15.245854908740327,0.5710335964804175,4.276621387812642,9.749491916233126,12.128467683377247,5.705697791641472,2.578512784129894,-1.384
3.338263365857396,15.313381453812534,0.9885169366698842,4.2522030958768084,9.938442006298962,12.024498766894096,5.6206108432185005,2.5570298812994157,-1.38
3.4941063945547257,15.415533976117544,1.4296618970875479,4.214832822510975,10.184673998195048,11.93621132318553,5.5829328489596675,2.5708544422586237,-1.376
3.6529520623106166,15.538014836584253,1.8838697972448735,4.177219386243537,10.480704420274494,11.863764122874338,5.592197550488817,2.6212192738771343,-1.3719999999999999
3.8064718946835003,15.665803494584091,2.34119970370924,4.153809328302491,10.818355776023544,11.806800643002413,5.646468169983829,2.7091444084471576,-1.3679999999999999
3.9474017717765157,15.784380847063327,2.7929562443335993,4.159762086924945,11.189168577125011,11.764944399430666,5.742570868677036,2.8354742673744835,-1.3639999999999999
4.070049459909251,15.880860949170804,3.2320847094889555,4.20975269056036,11.584714998409106,11.73818867610852,5.87631370657799,3.0008277645994004,-1.3599999999999999
4.170582566687012,15.944903816817288,3.6533131726287693,4.316632709470025,11.996757587449048,11.727092955252106,6.042637090494886,3.2054210952153155,-1.3559999999999999
4.2470967126471555,15.969343024329936,4.053053137951006,4.490047291914489,12.417257000906753,11.732765777378432,6.235703566189893,3.448785343361205,-1.3519999999999999
4.299517453882159,15.950517222642134,4.429129160183201,4.735163299766938,12.83828351220059,11.75667231727804,6.4489780790282945,3.7294470545559357,-1.3479999999999999
4.329411495865784,15.888329396162874,4.780433849128761,5.051686150578964,13.251909513362557,11.800336320325934,6.675354446070369,4.044649703256495,-1.3439999999999999
4.3397712648113975,15.786070597883622,5.106594645357372,5.433321034114434,13.650153122968499,11.865010487180493,6.907355452004823,4.390170738225932,-1.3399999999999999
4.334801822039705,15.650043201098029,5.407702985237279,5.867773275639419,14.025015427116342,11.951375505435118,7.137393657963595,4.760250387812378,-1.3359999999999999
4.3196986067490535,15.489013434204765,5.684114248327869,6.337301956878264,14.36862065061126,12.059307238151128,7.35805405848285,5.147619093866117,-1.3319999999999999
4.300381574060036,15.313527208554762,5.936301227434398,6.819768165638231,14.673446915990695,12.187737720068283,7.562367135271111,5.543610385253321,-1.3279999999999998
4.283161009662529,15.135143912738812,6.164748463822949,7.29007671094615,14.932634742265444,12.334636100205726,7.744076220334523,5.938374084047962,-1.3239999999999998
4.2743464546748084,14.965671119390114,6.369901643039703,7.721899923385538,15.14037347959451,12.497142342502562,7.897936263870217,6.321235156585046,-1.3199999999999998
4.27984844123289,14.816497578910313,6.552209622040505,8.089576060073172,15.29237229493628,12.67187991919633,8.020081976770063,6.681245631711218,-1.3159999999999998
4.304840456779721,14.69810603781719,6.71229383337786,8.370071842589718,15.386406784169054,12.855441924347858,8.108467459749724,7.007940187195362,-1.312
4.353540356710243,14.619804221457196,6.851248626255999,8.544882543603919,15.422897318841366,13.04499620068165,8.16332834876915,7.292245700947177,-1.308
4.429142839921741,14.589657510637485,6.971030579247251,8.601720932894889,15.405435370104636,13.238908014132443,8.187575727314771,7.527435972576609,-1.304
4.533893966498128,14.614554215940174,7.074850179984051,8.535827768465374,15.341142548906582,13.437247120539249,8.187009181144228,7.7099811081186855,-1.3
4.669255632112776,14.700296830077392,7.167450702034586,8.350734601740621,15.240736440303687,13.642040443571297,8.170238808372732,7.840127188834504,-1.296
4.83608440471463,14.851609282336128,7.255166113486389,8.058345253390163,15.118204229989153,13.857166908544405,8.148242443922602,7.922069638081413,-1.292
5.0347610216647745,15.071991553319018,7.345700713406313,7.678285308613411,14.99005578975209,14.087870609707986,8.13355761294556,7.963657978866176,-1.288
5.265240329392664,15.36341920051531,7.44764481374816,7.236575544442559,14.874217640122772,14.339963716031015,8.139194391805612,7.97566640273541,-1.284
5.527016850574427,15.72593939074998,7.569794219427873,6.763772240069689,14.78869640709744,14.618857299465398,8.177416645915025,7.970742249705939,-1.28
5.819009428998008,16.157239722373564,7.720360187159898,6.292761722543588,14.750164404371262,14.928577107899374,8.258553933308034,7.962179149467251,-1.276
6.139373692658322,16.65227006078118,7.9061536421748615,5.856404547661135,14.772610499585555,15.27090416889749,8.38998266280611,7.962658395575413,-1.272
6.485263543336655,17.20299125554177,8.13181884876437,5.48521050414491,14.86617382832308,15.644744640635828,8.575373143058274,7.983078392044025,-1.268
6.852581798249891,17.798313116303575,8.399186677794402,5.205202571331086,15.036249658674683,16.0457915458215,8.814257632373199,8.031564802717702,-1.264
7.2357831951040055,18.42427349064759,8.706822099459247,5.036110914977683,15.282936428077972,16.466503241837547,9.101944585879346,8.112735257571421,-1.26
7.627810150507268,19.06449807180924,9.0498475011549,4.99002906070063,15.600878699404788,16.89639149888848,9.429781202194823,8.227278196025393,-1.256
8.020232235434841,19.70095074135003,9.42010937157769,5.070644585029975,15.979535239127975,17.32257745758034,9.785733681674825,8.371878207263626,-1.252
8.403616291877816,20.314931556541946,9.806707299289945,5.2731100897789895,16.403855900559787,17.73053783360357,10.155209822980574,8.539475117166205,-1.248
8.768096444344586,20.888226626275877,10.196839413441582,5.584557386909752,16.855303042963435,18.104947647134395,10.522016375781712,8.71980343523905,-1.244
9.10407107532385,21.40428953001378,10.576868772410409,5.985201452919365,17.31312701001829,18.43054594610647,10.869350048183813,8.900148287911612,-1.24
9.402936336777339,21.849341237395222,10.933493191333318,6.449938517096666,17.755802421526834,18.692993169437205,11.180760068870834,9.066269950172211,-1.236
9.657763775705638,22.213295910499706,11.254896916947276,6.950306767914884,18.16253378106878,18.87971868643206,11.441057728358496,9.203461704718015,-1.232
9.863835437042523,22.49043767755599,11.531766041988641,7.456645112913801,18.514731689700366,18.980754228230783,11.6371589669232,9.297693447700647,-1.228
10.018968558529162,22.679791684912917,11.758065493384619,7.940268072399725,18.797353799664602,18.989525452572916,11.758837940077342,9.336767814830042,-1.224
10.12360420875161,22.78516565511828,11.931516373081626,8.375491699718472,19.000017737020045,18.903559066346922,11.799370087446581,9.31140747493906,-1.22
10.180693528047607,22.814885608056315,12.053772914731875,8.74139393480262,19.117828032657002,18.72506757476208,11.75606076990475,9.216211465818258,-1.216
10.195460200076345,22.78128680389051,12.130346464816967,9.023241337957884,19.151889443412458,18.46137728190894,11.630665525230635,9.05043877634691,-1.212
10.175117994813997,22.70002362827846,12.170329848664055,9.213530802065735,19.1094805570917,18.125145738371973,11.429685690072214,8.81856949281228,-1.208
10.128576737223746,22.5892307856559,12.185940191916572,9.312577596318933,19.00383884996317,17.734278771406924,11.16447458313138,8.530559702833104,-1.204
10.066106678190401,22.468527171651157,12.191850567078893,9.328556266161018,18.8534886725341,17.31143281205596,10.85104495651205,8.20167616882331,-1.2
9.99888760796914,22.357834415734498,12.204256975959554,9.276902842579208,18.68105572353836,16.883002946049732,10.509459901406862,7.85180468620261,-1.196
9.938371788617685,22.276004332235214,12.239650212307508,9.17903676697188,18.511568238606547,16.477561137875664,10.162732408233428,7.504186595476682,-1.192
9.895441232987288,22.239310256214736,12.313329803698585,9.06045457288503,18.37033576237405,16.123810370035777,9.835244799976318,7.18363667073724,-1.188
9.879421491477732,22.259934842320405,12.437787183382879,8.94835990350313,18.280595503091345,15.84823391226377,9.55080421017707,6.91440314831011,-1.1840000000000002
9.897097315370651,22.344653657599796,12.621167559039556,8.869093905162186,18.261196669242995,15.672716922077155,9.330547041734754,6.717920400977129,-1.1800000000000002
9.951927195369922,22.4939416287431,12.866062731917856,8.845684103853166,18.324629437926657,15.612470318523785,9.190966520817762,6.6107533807433265,-1.1760000000000002
10.043644872755323,22.701695585585764,13.168864150877434,8.895813758523209,18.475676816553456,15.674566880010767,9.142339974260542,6.6030195376325835,-1.1720000000000002
10.168358916401687,22.955667848085113,13.519812106333845,9.030425239831724,18.710870809349686,15.857298892478568,9.187769090341115,6.6974921253438495,-1.1680000000000001
10.319138794527321,23.238567549853936,13.903737752158158,9.253037283331537,19.018790121572778,16.1504092493577,9.322931369304813,6.889456504328166,-1.1640000000000001
10.486948525882504,23.529649652817586,14.301351729975076,9.559720144024462,19.381084856361756,16.536080711411767,9.536506205222897,7.167245933012647,-1.1600000000000001
10.661699302277272,23.806517664125476,14.690829536289671,9.939575360554386,19.77399855073489,16.990442192017806,9.811126138972876,7.513270533882853,-1.1560000000000001
10.833174603265869,24.046846535038828,15.049413899900339,10.375536690560237,20.170115710553425,17.48530620148692,10.12465095056067,7.905310319218301,-1.1520000000000001
10.99164901506816,24.22979855239292,15.354811748935907,10.845352866035038,20.540106848412147,17.98990085657056,10.45158590713891,8.317883217170971,-1.1480000000000001
11.12815107497913,24.337032087536027,15.58628260191341,11.322702950059304,20.85434712873594,18.472473735291945,10.764544241720628,8.723596308719719,-1.1440000000000001
11.23445342737299,24.35333322520509,15.725438243624081,11.778475502504856,21.0843919177936,18.901760488361713,11.035735135074576,9.094487218255525,-1.1400000000000001
11.302954341887352,24.266979697519975,15.756847022233503,12.182267173701407,21.20435161607207,19.24837286387061,11.238495066636746,9.40341208278393,-1.1360000000000001
11.326618131747622,24.069955788621694,15.66854161217673,12.504115777437862,21.192203632524112,19.486152924827902,11.34886129743379,9.625520481554963,-1.1320000000000001
11.299076082355775,23.758089273675523,15.452480117623201,12.716400184436358,21.031027763139896,19.59348214115472,11.347129536265582,9.739792036413137,-1.1280000000000001
11.214887356540386,23.331109372291053,15.104938518565312,12.795752438134786,20.71008475644744,19.554460427251872,11.219272002865159,9.730526550521498,-1.124
11.069869409110273,22.79256810417355,14.62675667565149,12.724776080872147,20.22561230214458,19.359818559195745,10.9580491560882,9.588617263198296,-1.12
10.861368816762308,22.149554462388153,14.023347725393961,12.4933710090625,19.581210870951573,19.007423478849752,10.563652272879226,9.312422282655445,-1.116
10.588360548607673,21.412158905119256,13.304408454608614,12.099518029068733,18.78772875134565,18.502277454022074,10.04376278872529,8.908083747373581,-1.112
10.251311522395216,20.592689553370647,12.483310852863228,11.549443870684692,17.862608428437614,17.85597421264987,9.41298510690833,8.389209640650531,-1.108
9.851800313190825,19.70468374548555,11.576196360520534,10.857150837937253,16.828712605223675,17.085639857136503,8.69168617883012,7.775914480367839,-1.104
9.39194616679976,18.761803161150308,10.600840142614354,10.043360613949138,15.712713698294442,16.21245606845822,7.9043561190629745,7.09330661938595,-1.1
8.873765638711586,17.776751686756743,9.57540823338117,9.133995860479223,14.543206973956709,15.25993984027096,7.077683451843368,6.3695999231283205,-1.096
8.298623757696461,16.76039430499272,8.517277832247556,8.158390139298353,13.348772544988131,14.252216277196277,6.238593886198681,5.634091114466848,-1.092
7.666949374403161,15.721251608247234,7.442100288653652,7.14744663398002,12.156232203422059,13.212533479210967,5.41250675091992,4.915256451069987,-1.088
6.978329958086792,14.665482420922686,6.363242345550062,6.131942041954864,10.989305875503044,12.162211406538324,4.622007300636122,4.239174523730937,-1.084
6.232004314074413,13.597358452653495,5.291653949130343,5.1411000271692116,9.867777446358781,11.120101199427173,3.8860265222712655,3.628386465915334,-1.08
5.427661937392984,12.520111414179041,4.236106205945185,4.201461666977656,8.807157913077345,10.102493327876006,3.2194914378410147,3.1011852393628097,-1.076
4.566370933126759,11.436936398754886,3.2036555932352324,3.335992819812074,7.818724895010109,9.123299843013442,2.633300532358126,2.67122006787125,-1.072
3.6514291170334197,10.351907738079616,2.2001577228861677,2.5633301631272576,6.909765636768682,8.194294896462525,2.1344368560451037,2.3472564166024568,-1.068
2.6889815415073883,9.270623620234117,1.230694650951044,1.8971019059105416,6.083880639818379,7.325250559950551,1.7260787070446841,2.132972834894806,-1.064
1.688347570621228,8.200516012736752,0.2998716819541129,1.345347715242637,5.341296990633232,6.52392513341998,1.4076791617630473,2.0267827359815676,-1.06
0.6620958857161648,7.1508806224314325,-0.5879717963984975,0.9101507883495268,4.679236225599435,5.795982787083168,1.1750969753298175,2.0217803721650256,-1.056
-0.3740514450633003,6.1327427605402045,-1.4285560278574667,0.5876288471677382,4.092424765570626,5.144984670137081,1.0209125460559882,2.1059642391020774,-1.052
-1.4014229781608332,5.158664238890798,-2.2174027281205575,0.3683909961399617,3.5738068510369967,4.572571763832532,0.9350330604425849,2.262862932795931,-1.048
-2.398699543694608,4.24253695096557,-2.9495301158290217,0.23847483222319413,3.1154427390135133,4.078880470568687,0.9056018844241164,2.472596896092192,-1.044
-3.342356965669419,3.3993357241695055,-3.6191709509416747,0.1806701473305902,2.7094874030173894,3.663131599248844,0.9201198036448126,2.713296042039931,-1.04
-4.207331049485873,2.6447426830468532,-4.219630980632814,0.1760420603673142,2.349077739506471,3.3242444733798617,0.9665956227797429,2.962694079792756,-1.036
-4.96799743868475,1.9945265574902358,-4.743422690398568,0.2054105009260366,2.028929407636806,3.0612765155182964,1.034495394331028,3.19965887138682,-1.032
-5.599526192037284,1.4635839856894524,-5.1827786277653685,0.2505500939307114,1.7454772042462885,2.8735023454860262,1.1152759152387937,3.4054165830922885,-1.028
-6.07958009819788,1.0646388373260975,-5.530557393307398,0.29496013595549186,1.4964957525261287,2.760040999731071,1.202383488604039,3.5643021727566855,-1.024
-6.390196368062782,0.8067291573576174,-5.781424043829099,0.3241964608360413,1.2802871596225167,2.719092255550738,1.2907528737885035,3.6640037161396677,-1.02
-6.519580573295119,0.6937316239968668,-5.933071319075829,0.3258949570805723,1.0946597214020606,2.746990053550699,1.3759937746385127,3.6954083290870146,-1.016
-6.463507270022305,0.7232207228507654,-5.987205346358716,0.2896893132242348,0.9359860989308929,2.8373574047199774,1.4535385144256676,3.6522429235986755,-1.012
-6.226081116719462,0.8859132987518,-5.950067040063122,0.207211220028527,0.7985985155332566,2.9806265975989796,1.5180160030232948,3.530707505476786,-1.008
-5.819738242607621,1.165833099456527,-5.832372208405015,0.07228076563878745,0.6746755870779472,3.1640903354701657,1.5630302635313622,3.329238187269945,-1.004
-5.264513585542205,1.5411892682649146,-5.648684263590785,-0.11871140553313442,0.5546456518369016,3.37251578162093,1.5813979523367674,3.0484493384880693,-1.0
-4.586722191316276,1.9858393129924796,-5.416342833772141,-0.36632157708365326,0.42801734977413847,3.5892264151641107,1.5657805039429877,2.691225033529124,-0.996
-3.817270282637235,2.471129429032421,-5.1541336765031165,-0.6676136586311907,0.2844765970844166,3.7974673083590194,1.5095636583469776,2.2628813662072744,-0.992
-2.9898165578653404,2.967881534344093,-4.880894811007042,-1.0159094165217342,0.11506528745309907,3.9818310510435047,1.407803109698526,1.7713081381009619,-0.988
-2.138962719145389,3.4483134399492683,-4.614226291605439,-1.400840961362629,-0.08673384413326109,4.129526849100583,1.2580602855667689,1.2270079476565527,-0.984
-1.2985927051903279,3.8877158900930833,-4.369427920901793,-1.8087686110836314,-0.3241581454102622,4.231310288540615,1.060976797253798,0.6429638739549498,-0.98
-0.5004202410300559,4.265760392872179,-4.1587389318191805,-2.2235694931103516,-0.5966877719342593,4.281952343646913,0.8204740035484447,0.03428094501598977,-0.976
0.22724930275121302,4.567376931238885,-3.9908952322646063,-2.62773467207075,-0.8999881244883922,4.280214636630315,0.5435268925952469,-0.5824219049317362,-0.972
0.8605729631005262,4.78321078371842,-3.8709625816144317,-3.0036453917162595,-1.2262530033863495,4.228397984133309,0.23955052780684247,-1.189834871673746,-0.968
1.3810730758696768,4.909717724108611,-3.8003700536174136,-3.334858098949877,-1.564859633788128,4.131608675214688,-0.08047509132146462,-1.7708979952398967,-0.964
1.7763888629189408,4.9489692219048065,-3.777071361541637,-3.607233225253856,-1.903212055093886,3.9969131483798432,-0.4049696717579406,-2.3097312923118687,-0.96
2.040827924738052,4.908219824007982,-3.7957944279485623,-3.809790735566979,-2.2276574668612983,3.8325236035273984,-0.7226494812535211,-2.7924457606590116,-0.956
2.1756328021422893,4.799258759565126,-3.8483808076240185,-3.935244007905668,-2.5243966099844317,3.6470944927036495,-1.0232610802557385,-3.2077830746793077,-0.952
2.1888707050280742,4.637545535151924,-3.9242477013530377,-3.980228747806754,-2.780353402153882,3.449140008531598,-1.298133915476572,-3.5475939515380297,-0.948
2.094877643305588,4.441124808142553,-4.011015970245044,-3.945289504197713,-2.9840044045986747,3.246529551381997,-1.5405963998198153,-3.807206557316087,-0.944
1.913238340744585,4.229335744283044,-4.095330600918875,-3.834702459965468,-3.1261810829200183,3.046001382104361,-1.7463245281293265,-3.9857397748857246,-0.94
1.6673553111745711,4.021376935125535,-4.163853173502255,-3.656194557560139,-3.2008378210047694,2.852663364880302,-1.9136665349708313,-4.0863771696695,-0.9359999999999999
1.3827381952191757,3.8348462386794293,-4.204341663086458,-3.420574951421898,-3.2057334943118083,2.6695096663472637,-2.043924891792839,-4.116553080878142,-0.9319999999999999
1.085200371825751,3.684417337985328,-4.206679632646953,-3.141250758851768,-3.142930253097243,2.4970375429452925,-2.14151621788119,-4.087947935007219,-0.9279999999999999
0.7991597854479373,3.5808143589516432,-4.163703728450731,-2.8335837859945854,-3.019000282264011,2.333062895364856,-2.213911038832695,-4.016180671966857,-0.9239999999999999
0.546202017425756,3.5301970174122554,-4.071714740652889,-2.5140695255430345,-2.8448623456101996,2.1727973504872202,-2.2712920415348634,-3.920133069008704,-0.9199999999999999
0.34399991200274727,3.533995804090162,-3.930622496739762,-2.199366557134493,-2.6352273595781326,2.0091903070607824,-2.3259337435633918,-3.8209177198930533,-0.9159999999999999
0.20562817008145848,3.589175813911904,-3.7437338092828925,-1.9052423700286683,-2.4076832690026606,1.8334985974405473,-2.391353344845475,-3.740564642481143,-0.9119999999999999
0.13927614478592196,3.6888746495387754,-3.5172288421187132,-1.64551690188666,-2.181479381694126,1.636040303352182,-2.4812954253243316,-3.70053126837762,-0.9079999999999999
0.1483348813644767,3.8233398194520185,-3.2593957324542564,-1.4310905108660439,-1.9760936920841672,1.4070942682535783,-2.6086166054902566,-3.7201551699822453,-0.9039999999999999
0.2317995075142214,3.9810637192827887,-2.9797222279771525,-1.26915446654308,-1.8097017376561126,1.1378912860615635,-2.784157334859333,-3.8151901201349965,-0.8999999999999999
0.3848902497633624,4.14998194665706,-2.687971412187872,-1.1626931563940002,-1.6977045678067437,0.8216059041153857,-3.0157176580304,-3.9965840442560516,-0.8959999999999999
0.5997794021208094,4.318589562527589,-2.3933706750632595,-1.110372447067513,-1.6514860496480093,0.4542308034639741,-3.307258226662208,-4.269641300881628,-0.8919999999999999
0.8663370280145534,4.4768619005527475,-2.1040002118676973,-1.10685072801712,-1.6775345706118212,0.03522870578937779,-3.6584107827987817,-4.633650113214939,-0.8879999999999999
1.172864058201645,4.616931794881596,-1.8263934703515556,-1.1434629046532436,-1.776993889074549,-0.432092884884477,-4.0643237859847465,-5.081974332908069,-0.8839999999999999
1.5068293225637845,4.733536195541219,-1.5652986535690587,-1.209153568461766,-1.9456398921078002,-0.9404835426058552,-4.515822024153112,-5.602545928146973,-0.8799999999999999
1.8556331755282027,4.824269813968893,-1.3235328539493167,-1.2915080017312777,-2.174242737427358,-1.47889918178324,-4.999839630091846,-6.17866924185329,-0.8759999999999999
2.2073848138929666,4.889671478344488,-1.101888648379416,-1.377749977644317,-2.4492640118350066,-2.032870288830344,-5.500084407147377,-6.790049070573261,-0.8720000000000001
2.5516319629047923,4.933144590923137,-0.8990982743150843,-1.4556184704547819,-2.753833913001023,-2.5850702498343794,-5.997890279291357,-7.413960924377562,-0.8680000000000001
2.8799475503253635,4.960695728907971,-0.7118968293595126,-1.5140793210425778,-3.0689433545104667,-3.116069540891979,-6.473210347224646,-8.0264867851908,-0.8640000000000001
3.1862670838215372,4.980466726067632,-0.5352458847605325,-1.5438674839015096,-3.3747789931535013,-3.605266625106708,-6.905705897573576,-8.60375202655297,-0.8600000000000001
3.466884753084809,5.00203624831158,-0.36277931805215147,-1.5378875505975313,-3.6521312430775943,-4.031994369551214,-7.2758992546449806,-9.123121550060265,-0.8560000000000001
3.7200634267491637,5.0354898272940805,-0.187502487882373,-1.4915106308715664,-3.8838037088295887,-4.376793842614576,-7.566362894001162,-9.564329287696257,-0.8520000000000001
3.9452934199814087,5.090309926135764,-0.0027107216580037155,-1.402785371538213,-4.055934555164598,-4.622808807141885,-7.762897054295713,-9.910508553538659,-0.8480000000000001
4.142321424308554,5.174199644866852,0.19698175372755777,-1.2725464505389918,-4.159117736355483,-4.757198465194763,-7.855614019083871,-10.14907041257981,-0.8440000000000001
4.3101281813001995,5.291991965910998,0.41465910761623154,-1.1043831551034544,-4.18920846268643,-4.772426037891692,-7.839826550796281,-10.27236749555101,-0.8400000000000001
4.446044523340693,5.444796643340934,0.6503280968512613,-0.9044338986035035,-4.147720158513291,-4.667272277607686,-7.716642829260313,-10.27809041242926,-0.8360000000000001
4.54516560311244,5.629505764177608,0.9004761996781241,-0.6809919700921574,-4.04176034785345,-4.447440486312111,-7.493193136885771,-10.169363910110514,-0.8320000000000001
4.600166216588581,5.8387284263585775,1.1580337186977563,-0.44393324652987776,-3.8835004995462836,-4.125655811517986,-7.182443147165941,-9.954529916044358,-0.8280000000000001
4.601554575556296,6.061168697033954,1.4127478776158497,-0.20399825161879517,-3.6892203929272633,-3.721210198512115,-6.802577129110312,-9.646619005364471,-0.8240000000000001
4.538344844885784,6.282412839031582,1.6519271359506664,0.02802769947247885,-3.478002584926811,-3.2589562047644534,-6.375960639137428,-9.262521697335593,-0.8200000000000001
4.399081206731892,6.486052151649822,1.8614770418048792,0.24218376484092433,-3.2701807932796236,-2.767805881182802,-5.927726535812302,-8.821888475171013,-0.8160000000000001
4.173096477121136,6.6550250840736735,2.027111632506665,0.43017753716165935,-3.085679839021464,-2.2788516275915227,-5.48408121483196,-8.345825142176407,-0.812
3.8518369711784737,6.773017232670372,2.135585146569129,0.5860938897449586,-2.942421954280549,-1.8232891982703592,-5.07049045368811,-7.855500764660266,-0.808
3.4300552356244167,6.825734523544315,2.175769595469644,0.7068367640074654,-2.8549894627551375,-1.430361945230836,-4.709944361252366,-7.370820186075416,-0.804
2.906687936764589,6.801888454738543,2.1394286345479157,0.7921915413619692,-2.8337020657552703,-1.1255333561830863,-4.421489424992745,-6.909305215099271,-0.8
2.285298835918128,6.693800555065668,2.0216061636282694,0.8444607709052976,-2.884191250038621,-0.9290350951588296,-4.219154562580635,-6.485279229171983,-0.796
1.5740521877003975,6.497615878931469,1.8206316459099094,0.8677115979934552,-3.0074658797068623,-0.8548632362279444,-4.111321974295541,-6.109389214795623,-0.792
0.7852609699012811,6.213181037078486,1.5378135625474025,0.8667483600079254,-3.2003929313061588,-0.910237550532789,-4.10053709277074,-5.78845695505246,-0.788
-0.065387071389526,5.843682397540938,1.1769372572235397,0.8459753082352339,-3.456472241570644,-1.0955002233525164,-4.183719024651477,-5.525628407041975,-0.784
-0.9597868839951396,5.395161306346902,0.7437057686519898,0.8083421255141824,-3.766755847726047,-1.4043977044395686,-4.352707273788625,-5.320769970190143,-0.78
-1.878410391236188,4.876024657165227,0.24525827186036744,0.7545627109350356,-4.120752672367644,-1.8246627316999984,-4.595057245815459,-5.171036429136756,-0.776
-2.801215403531213,4.296642886704495,-0.31013613496555337,0.6827560319383811,-4.5071787576313875,-2.3388063998308666,-4.894985687677864,-5.07151775874449,-0.772
-3.708396197883127,3.6690769305943944,-0.9131737021940965,0.5885819516861753,-4.914461890113737,-2.925044554650391,-5.2343712774161775,-5.015869071440014,-0.768
-4.580958925782588,3.006918346541074,-1.5534312502877885,0.46585565669371065,-5.330973087708721,-3.558304811667663,-5.593728406342204,-4.99684084762404,-0.764
-5.401154486363034,2.325178512537418,-2.2191861965984567,0.3075410402664665,-5.745022731365307,-4.211279670470559,-5.953092311879314,-5.006656060505318,-0.76
-6.1528379937111035,1.6401308830622519,-2.897260934815281,0.10695723604910823,-6.14471840843116,-4.855508771324402,-6.292787182613156,-5.037226885721638,-0.756
-6.821835966972496,0.969004880129722,-3.573017389497613,-0.14100216724746595,-6.517819607249792,-5.462486430474693,-6.594089671178851,-5.080253053565682,-0.752
-7.396371662415013,0.3294673401762669,-4.230589670159069,-0.43882022849085534,-6.851716256880298,-6.004783851997344,-6.839821798551003,-5.127267790852829,-0.748
-7.867528649472896,-0.2610959036645812,-4.853363915505906,-0.7855916319464636,-7.133598323192296,-6.457144952082738,-7.014891767795892,-5.169679744098935,-0.744
-8.229667654371278,-0.7864125954477821,-5.424637318442559,-1.1765756702076402,-7.35081000645069,-6.797489097546723,-7.106770480247995,-5.198824687910115,-0.74
-8.480702954822158,-1.2321638343288661,-5.9283619373249605,-1.6030622866783364,-7.491343810988965,-7.007766415235813,-7.105883734957222,-5.206030279496535,-0.736
-8.62219471191577,-1.5867563155380928,-6.349906079443952,-2.0525531142295574,-7.544435305764499,-7.074655780008847,-7.005921419544298,-5.1827187994975095,-0.732
-8.65927827871124,-1.8419965740599142,-6.6768061285207105,-2.509274991686751,-7.501236838551255,-6.990133257489117,-6.804087692350238,-5.120598556048116,-0.728
-8.600487745638297,-1.9936572155413017,-6.8994980883369585,-2.955034031875838,-7.35554862244539,-6.751940438807572,-6.50131600992042,-5.011998291038114,-0.724
-8.457523535808676,-2.0419145320011,-7.012002534341946,-3.370377439801904,-7.104562342343925,-6.363947110776178,-6.102447008945634,-4.85037398227045,-0.72
-8.244969325204112,-1.991604942060001,-7.012499104437929,-3.7359690067062417,-6.749532746657008,-5.836347674095223,-5.61632499590083,-4.630966834665542,-0.716
-7.979905532789782,-1.8522130099080123,-6.903687782652391,-4.034024837470143,-6.296252910990798,-5.185580305456628,-5.055726893400559,-4.351526871515563,-0.712
-7.6813314656643925,-1.6374933376911738,-6.692822598779703,-4.249628621935595,-5.755195486517098,-4.4338405042713145,-4.437020045215262,-4.012964999750286,-0.708
-7.369323564012045,-1.3646631001678429,-6.391338261806072,-4.371769428230527,-5.1412160033268375,-3.6080954501365277,-3.779471410943215,-3.6197858342219553,-0.704
-7.063919492054574,-1.0531768623934603,-6.014062718129957,-4.394008168657073,-4.472790247560639,-2.7385881600951585,-3.104198673829815,-3.180191077515745,-0.7
-6.783795488043844,-0.7231814148033404,-5.5780863781612275,-4.314747896902998,-3.7708467394758944,-1.856923340039545,-2.432839313887533,-2.7058095006945124,-0.696
-6.544864120540301,-0.3938135368917166,-5.1014122497406955,-4.1371303442372165,-3.057325733398514,-0.9939160811097084,-1.7860845802471392,-2.211075365323478,-0.692
-6.358948575260311,-0.08153400672417455,-4.601533913509824,-3.8686047744963346,-2.3536336643371154,-0.17743905771145782,-1.182260898058192,-1.7123253339778597,-0.688
-6.232691871996773,0.20131020276687414,-4.094090073809457,-3.5202302293526224,-1.679168708140829,0.5694824522775264,-0.6361374500645832,-1.2267126542023437,-0.6839999999999999
-6.166839817220243,0.44753192751742726,-3.5917329595971883,-3.1057879799164945,-1.0500744875296124,1.2301075109727482,-0.15809961697473204,-0.7710483106350576,-0.6799999999999999
-6.155998268582601,0.6556453954163075,-3.1033247196858906,-2.640795572128412,-0.4783407948478686,1.7947970763169139,0.24623556269161403,-0.36067488606044407,-0.6759999999999999
-6.188912631541489,0.8298570556924165,-2.6335399215687025,-2.1415186167570854,0.02868037419525275,2.2611555448705607,0.575957446693718,-0.008464940473611312,-0.6719999999999999
-6.249251846641772,0.9795338561322762,-2.1828987074033854,-1.624058951815316,0.4683348339707276,2.633541554669692,0.8344176757838575,0.27598969331598394,-0.6679999999999999
-6.316807655576572,1.1182477073141837,-1.7481882603829912,-1.1035568986374822,0.8423553854023703,2.9220813135330026,1.0285251285805768,0.48696910431393664,-0.6639999999999999
-6.368967246043333,1.2625363447715994,-1.323175699424479,-0.5935059478388393,1.156274824813104,3.141365333165622,1.1679253040245516,0.6230000556158668,-0.6599999999999999
-6.382307229247776,1.4305144677619754,-0.8995005961403884,-0.10517053728508478,1.4186579849358598,3.3090010836078285,1.264182033597607,0.6870173535292045,-0.6559999999999999
-6.334184789611409,1.6404278531704914,-0.46765825675217343,0.35287710569052183,1.6402155897157167,3.444145413653562,1.3300133575475883,0.6862850769793756,-0.6519999999999999
-6.204241063139716,1.9092018808305704,-0.018019132336623517,0.7750533887474176,1.8328284634420156,3.566086761679589,1.378568166509816,0.6320223723579819,-0.6479999999999999
-5.975761094416718,2.251019197857029,0.45814787118450084,1.1588326060328886,2.0084984940778017,3.6929122751864996,1.422697219886037,0.5386792773346217,-0.6439999999999999
-5.63684877994132,2.6759714116194027,0.9676768539718488,1.5045431732793524,2.178255959193319,3.8402822543349586,1.474178189758242,0.422844676855032,-0.6399999999999999
-5.181374363749858,3.188858788508508,1.514574975654977,1.8148857834785737,2.3510844026185516,4.020339871321113,1.5428921403918017,0.3018351523416645,-0.6359999999999999
-4.609638544106239,3.788248110515251,2.0992342784138316,2.0942280228751398,2.5329630555861944,4.24080320542073,1.63600359575815,0.19209538498703319,-0.6319999999999999
-3.9286845999382733,4.465919822500998,2.7178835337569254,2.347785962815727,2.726151419393746,4.504305624009135,1.757241645714706,0.10760646749021952,-0.6279999999999999
-3.1521972905047995,5.2068179639256496,3.362374316257332,2.5808257130242915,2.928828804149171,4.808051736697515,1.906390785983324,0.05851536676901029,-0.6240000000000001
-2.299956461745787,5.989561088908943,4.020358181495298,2.797998037258153,3.135155146588841,5.1438387266908085,2.079080795803647,0.05016551857773995,-0.6200000000000001
-1.3968482136116478,6.7875049065151565,4.675861818849287,3.0028761519831484,3.3357632806726705,5.498471849275801,2.266939641137321,0.08265271161682246,-0.6160000000000001
-0.4714686280608375,7.5702882494649115,5.310222811345907,3.1977224972359686,3.5186449905459027,5.854583004605678,2.458151215359171,0.1509714435754308,-0.6120000000000001
0.44560687238033037,8.305743702244426,5.903310417446963,3.3834704157300224,3.670350152518544,6.191828723448523,2.6384226403871387,0.24574907582683517,-0.6080000000000001
1.3237632027923958,8.962006819713642,6.434916937064364,3.55986923398428,3.7773712656900393,6.488387403753177,2.7922968956311105,0.35447879634660734,-0.6040000000000001
2.1343119426106374,9.509617490532468,6.886168354335215,3.725710484748182,3.8275396431617104,6.722605770870939,2.9046571443291995,0.46306942388700517,-0.6000000000000001
2.852267235296882,9.923391491780954,7.240784858092543,3.8790429773902204,3.811236235177864,6.874593106057973,2.96219817802686,0.5574645012022105,-0.5960000000000001
3.457731567834133,10.183871977926694,7.486044843857787,4.017309985743931,3.7222457325066096,6.927565255194753,2.9546315240226217,0.6250801231278089,-0.5920000000000001
3.9367700808819457,10.278256949488007,7.61337789471327,4.137402799006795,3.5581665397489672,6.86881365479643,2.875463372345021,0.6558820903224417,-0.5880000000000001
4.281763736030171,10.200814657242871,7.618609249150992,4.2356957941389926,3.32040655142138,6.690290633956878,2.7223141316642674,0.6430437674714137,-0.5840000000000001
4.491323168888291,9.952891972734234,7.501951874379427,4.308166996994541,3.0138916956445434,6.388900729114217,2.496871676222763,0.5832420663292434,-0.5800000000000001
4.56987460554489,9.542645494273456,7.267853322176983,4.350684829869217,2.6466421049658657,5.9666153029036595,2.2046221460861943,0.4767044718633251,-0.5760000000000001
4.527000783498944,8.984581043599716,6.9247566894859895,4.359466276866354,2.2293244004709987,5.430480023381012,1.854466141236901,0.32709850595567386,-0.5720000000000001
4.376575934096777,8.298918556523654,6.484770358050647,4.331629290722583,1.774809554014779,4.792508267272118,1.4582496947466026,0.1412927904445039,-0.5680000000000001
4.135713349899691,7.510754091385903,5.963201282719621,4.265715927782405,1.2977037269600569,4.06940273346886,1.0301812193226276,-0.07103078052987637,-0.5640000000000001
3.823553301468245,6.648985553367242,5.3779037064499775,4.162063335359556,0.8137962428517534,3.28204338582905,0.5860962985530479,-0.2979456162986966,-0.56
3.4599437658941032,5.744994893231879,4.748420571573678,4.022933827819016,0.33938092669223013,2.45471023275709,0.14256219561007022,-0.5260406659250764,-0.556
3.064096668983891,4.831126104014272,4.094940482406419,3.8523702219922202,-0.10955298879472981,1.614057058632742,-0.28413506395695204,-0.7413418266301441,-0.552
2.653334887150868,3.9390564532907084,3.4371524365364894,3.655811478434291,-0.5182041766305959,0.7879064522497415,-0.6790199334740983,-0.9303099069858618,-0.548
2.242069314438053,3.098209926772139,2.7931356636670692,3.4395707045181276,-0.8738008812198892,0.0039837405362176765,-1.0293256587136526,-1.0807802456087476,-0.544
1.8411434317083952,2.3343837043050093,2.1784468767661544,3.2103172445209918,-1.1662546796810915,-0.7112706936583928,-1.325104864247396,-1.182688904697054,-0.54
1.4576452941411666,1.6687386492982224,1.6055465127524364,2.97469937041206,-1.3884966658734903,-1.3336866546375523,-1.5594351855106854,-1.2284577011071107,-0.536
1.0952162264389689,1.117245426421336,1.083640759850594,2.739193791461364,-1.5364286833332315,-1.8420754079562958,-1.7281852405517721,-1.2129835439287373,-0.532
0.7547955150957382,0.6905922164621661,0.6189239430910695,2.510187976558246,-1.6085134009555955,-2.2186712765671497,-1.8294109349524883,-1.133277350375901,-0.528
0.4356570563613425,0.39447416971543287,0.21511636290528102,2.294218970005739,-1.6051171474947694,-2.449378414911868,-1.8625459782940637,-0.987890827869462,-0.524
0.1365439730552135,0.23012732454212545,-0.12586348925874744,2.0982367232783212,-1.5277778635114487,-2.5239341157171604,-1.8276009740684875,-0.7763231950771162,-0.52
-0.14330145877623343,0.19495131024637993,-0.4032658188313694,1.9297425685674174,-1.378584979511284,-2.4360953685478397,-1.7245812356742107,-0.49860286086897787,-0.516
-0.4033907776875611,0.28307915225282976,-0.6170653219013325,1.796670518553176,-1.1598327870760816,-2.1839216522407887,-1.5532840102701566,-0.15519742221967844,-0.512
-0.6416498004291178,0.48579489543003085,-0.7678016036892418,1.7069296942581218,-0.8740465681074028,-1.7701728588216348,-1.3135508197115566,0.2526748947060747,-0.508
-0.8545281881099349,0.7917698698185784,-0.8567183317591104,1.6676114922109964,-0.5243837901159049,-1.2027695567637373,-1.0059380455112852,0.7223696033686261,-0.504
-1.037501566460189,1.187170518333249,-0.8861237401830296,1.683968551684708,-0.11530222669690342,-0.49518889520503045,-0.6326522104969948,1.248926708664981,-0.5
-1.1858247746467718,1.6557553110996708,-0.859823826015712,1.7583603685338878,0.34670051351288694,0.3333779934250772,-0.19851195658039464,1.8241980422307844,-0.496
-1.295347095286143,2.17910314135306,-0.7834505259872717,1.8894031647069112,0.8525082221995545,1.2582812404084833,0.28832759903830824,2.436246554771268,-0.492
-1.363202459292797,2.7370928977999736,-0.6645288199410521,2.0715436341707987,1.390175642096338,2.25020197032155,0.816112192256826,3.0692393138002516,-0.488
-1.3882414648430188,3.308686803025671,-0.5121975776123927,2.2951950232428153,1.9452102004872103,3.2765012668604285,1.3698104676763279,3.7039650610313264,-0.484
-1.371159938819685,3.8729775570094254,-0.3365998524869518,2.547449636112004,2.501348011433118,4.3030350921402745,1.9320087369899561,4.318975791139348,-0.48
-1.3143672954326664,4.410372285527893,-0.14805435925801902,2.813254488480221,3.0417040296783733,5.296237373221347,2.4842379953129554,4.89221579508884,-0.476
-1.2217012057323675,4.903728104572943,0.043816827351347364,3.0768419432451046,3.550085832599622,6.225205786325404,3.0084993045258686,5.402894220579974,-0.472
-1.0981218168864733,5.339236223710995,0.23081091167007037,3.3231632018271138,4.012219180515347,7.063502776754276,3.48870716835494,5.833297604858039,-0.46799999999999997
-0.9494982187101719,5.706887433086024,0.40656024960322057,3.53909206510023,4.416655509638833,7.790420520464889,3.9117863617185766,6.170244119867167,-0.46399999999999997
-0.782526046543533,6.000450893935081,0.5665798572365649,3.7142535394490523,4.7552244849206735,8.391564450968673,4.268249831468255,6.405964182730951,-0.45999999999999996
-0.6047109756218276,6.2170381714591825,0.7080148167573098,3.84146110995349,5.023036185816299,8.858767123536694,4.552236250710608,6.538336815584105,-0.45599999999999996
-0.4242705826324335,6.3564485364045,0.8292645000177657,3.9168632126684546,5.218172032379705,9.189497356769518,4.761140207464059,6.57056671819403,-0.45199999999999996
-0.2497943873864378,6.420542553646118,0.9296952322389543,3.939951879348554,5.341273747448397,9.3860183864384,4.895063344525248,6.510493962861518,-0.44799999999999995
-0.08957094253453975,6.41284689693794,1.0095972643875162,3.913556156175947,5.395219584731419,9.454544365672282,4.956316888268685,6.3697515946469165,-0.44399999999999995
0.049385884858582564,6.33847554548213,1.070421902356911,3.843851309909462,5.3849832911086795,9.404561531550746,4.949123815254436,6.16293054380538,-0.43999999999999995
0.16245069281621602,6.2043095599841385,1.1152012427611435,3.7403094553082497,5.3176492926697945,9.248360368024303,4.879543826753921,5.906811508865073,-0.43599999999999994
0.24839230375250768,6.019261103761207,1.14895582765272,3.6154462756864656,5.202456159593577,9.00071138168945,4.755525142176611,5.619624870834208,-0.43199999999999994
0.31000830326140827,5.794396556506403,1.1788677469959978,3.484212716933573,5.050694533587145,8.678543950460806,4.586913533094088,5.320241352100668,-0.42799999999999994
0.3541941797441443,5.542730136052545,1.2140521346539501,3.3629489452504067,4.875314134068764,8.300481695123137,4.385248965181937,5.02720576073166,-0.42399999999999993
0.39139113246951246,5.2786170823511425,1.2648862178552804,3.2679437894576466,4.690193336972989,7.886156419626869,4.163259502653191,4.757607344431694,-0.41999999999999993
0.4345145540722717,5.01682701120784,1.342003551255721,3.213778739677347,4.509154831014621,7.455334272551227,3.9340863592579893,4.525895085560668,-0.4159999999999999
0.4975773957651845,4.771491092093183,1.455163952421172,3.2117203304191686,4.344908653023627,7.026981404967176,3.7103797846272055,4.3428286887027,-0.4119999999999999
0.5942516706318202,4.555142638240552,1.6122262781058672,3.268425184512884,4.208126180488956,6.618426549305572,3.5034461440175844,4.214761400528267,-0.4079999999999999
0.7365703069708472,4.378016478511317,1.818394418905939,3.3851532362889754,4.106801214057658,6.244744085533758,3.3226000501625257,4.1433865166004695,-0.4039999999999999
0.9338988648147896,4.247679305395175,2.0758182665886626,3.5575850314155204,4.045972144282451,5.9184110094024005,3.1748069461013575,4.125982625649997,-0.3999999999999999
1.1922303847703815,4.168967840772171,2.3835430678766993,3.7762366918974344,4.0277922555236865,5.649211920378217,3.0646174649899667,4.156095395341779,-0.3959999999999999
1.513787937152375,4.1441347979410255,2.73772704421127,4.027374160443419,4.051859696041173,5.444296910631439,2.994317029575837,4.224515138547277,-0.3919999999999999
1.896866515028288,4.173058353582161,3.1319984837329096,4.29425721931215,4.11566691635302,5.308254825801563,2.9641618938777246,4.320362344336484,-0.3879999999999999
2.3358251870840423,4.253374835148098,3.5578153730545825,4.558510849071944,4.215018082129442,5.243067475378369,2.9725644553965096,4.432089749434408,-0.3839999999999999
2.8211700476097143,4.380458117194852,4.004738581955466,4.80144643112198,4.344308539416495,5.247874575381297,3.016140987038081,4.548260791231331,-0.3799999999999999
3.3397429218109647,4.547279045395624,4.460625602079856,5.00523691193197,4.4966567547222285,5.318594931399079,3.0896362619463633,4.6580647006976905,-0.3759999999999999
3.875105651416139,4.744283848542785,4.911849420871141,5.153947928117296,4.663981448660042,5.447565854966634,3.185843902226697,4.751636413310376,-0.3720000000000001
4.408229726529524,4.959473212294024,5.343687557527417,5.234483111593334,4.8371661803980714,5.6234145960412905,3.2956855513405436,4.820307398482338,-0.3680000000000001
4.9185466847664925,5.1788211697252935,5.7409853893100005,5.237487113562913,5.006425048410134,5.831334006735953,3.408571201325946,4.8568958412234915,-0.3640000000000001
5.385315293918169,5.387071989325569,6.089101107928808,5.158182849517664,5.161899811651688,6.0538268319612705,3.5130677201742073,4.856074160065536,-0.3600000000000001
5.789165899640295,5.568842951882897,6.375035777018309,4.9970448803188185,5.294426416045476,6.271862912917523,3.5978044082890523,4.8147722993564,-0.3560000000000001
6.11362581963784,5.709880366616787,6.588580413674923,4.760168233276609,5.396344462145717,6.466303441452471,3.6524782148241024,4.732520747056825,-0.3520000000000001
6.346422130320614,5.798280268345306,6.723288655978778,4.459197980386684,5.462201151641818,6.619400914711619,3.6687966812724038,4.611621658179835,-0.3480000000000001
6.480390718589917,5.825489718534885,6.777104432196608,4.110732832963818,5.489216757223358,6.716177397506621,3.6412073107653,4.457055346455149,-0.3440000000000001
6.513880829998928,5.786941876784318,6.752528955884377,3.7351899689104706,5.477420963850445,6.745510073779037,3.567299299210607,4.276071730014872,-0.3400000000000001
6.450625931121451,5.6822460923896605,6.656293729207803,3.355207294990423,5.429433720730331,6.700811851289354,3.4478257662155958,4.077477104397958,-0.3360000000000001
6.299143777441944,5.514944857799402,6.498603988730987,2.9937508632569645,5.349942790569439,6.580278863498211,3.28637626690127,3.870699747040845,-0.3320000000000001
6.071803968015776,5.291933486903654,6.292099554368883,2.6721611101448013,5.244997082324886,6.386756545732363,3.088803373545631,3.664779206282205,-0.32800000000000007
5.783729855913388,5.022680843262738,6.050712231976136,2.4083809425641203,5.121258263617239,6.127316120360032,2.862537109601927,3.4674413155488693,-0.32400000000000007
5.451677799531154,4.718379492337057,5.788571923340807,2.215557044584595,4.985325223311846,5.81262508062624,2.6158965268562344,3.2843848452203654,-0.32000000000000006
5.092983134176385,4.39111040777633,5.51905149628994,2.1011199031135637,4.8431894019413315,5.456162384833405,2.357455017919443,3.1188402312754984,-0.31600000000000006
4.724609344415875,4.053060797417099,5.253978811934675,2.0663636600454285,4.699826278946243,5.07330453308506,2.0954723556931927,2.9714007391089505,-0.31200000000000006
4.362304678228093,3.7158059413179862,5.003008426326441,2.1064890046361175,4.558900784239854,4.680310596704608,1.8373906438162078,2.840091445203898,-0.30800000000000005
4.019864103698802,3.389663887082232,4.773142357613923,2.2110489412208767,4.422565552179156,4.293258024463767,1.5893980998464545,2.72063041326005,-0.30400000000000005
3.708509808886254,3.0831496927209323,4.568411419796022,2.3647424219167035,4.291352337563747,3.927010667806778,1.3560819535026891,2.606841478802614,-0.30000000000000004
3.436431968304726,2.802582405506579,4.389761429606654,2.548520969822911,4.164186868136406,3.5943241212169688,1.140213822438005,2.491196009457402,-0.29600000000000004
3.208557883627512,2.5519164419503837,4.235211554925736,2.7409894167059665,4.038580057599824,3.305201947351295,0.9427290314693231,2.365484655270684,-0.29200000000000004
3.026618657563676,2.3328581858198953,4.100341072235881,2.920071925256251,3.911042824905275,3.066594816580898,0.7629561422881324,2.22162868543882,-0.28800000000000003
2.889542922855726,2.145277717053409,3.979104750142305,3.064868474452934,3.7777262230149478,2.8824734824948504,0.5991101054099559,2.052615296736078,-0.28400000000000003
2.7941383504865214,1.9878508293803157,3.8648944869350674,3.1575610091929733,3.6352183624093986,2.754221387629592,0.4489933071158336,1.8534890108039008,-0.28
2.7359571828567995,1.858803691647802,3.7516949355537648,3.1851766694755894,3.4813701420204697,2.681220731277186,0.3107869229084468,1.6222818438878892,-0.276
2.710207927502257,1.7566076468221723,3.6351519912807846,3.1410016696763967,3.3159990697598456,2.661475846777177,0.1837877706023292,1.3607429120387664,-0.272
2.7125700952897662,1.6804821300199333,3.5133826656864087,3.0254595593588243,3.141331488154725,2.692127941896961,0.0689520817863487,1.0747328111037628,-0.268
2.739778439675103,1.6305938517822802,3.3873858594315287,2.846307199319297,2.9620724786593473,2.7697469058587907,-0.03086959272657837,0.7741686255209324,-0.264
2.789868580728731,1.6078873966700244,3.2609624149968788,2.618062161721681,2.7850387822262657,2.890332209341633,-0.11108475690166782,0.4724475566451165,-0.26
2.8620327591182613,1.613554263151185,3.1401292417094964,2.3606690465979105,2.6183648471966543,3.049024048787649,-0.165910545968317,0.18535753855433335,-0.256
2.956126853145174,1.6482402022216531,3.03211433933753,2.097535440049105,2.4703923843956317,3.2396173793582683,-0.18923947034839372,-0.0704026929519775,-0.252
3.0719738075755227,1.7111786345330202,2.9441211912459315,1.8531889435079343,2.3484492083189603,3.4540599847920803,-0.17563661223409474,-0.27886174922154083,-0.248
3.208680138771999,1.799483392523543,2.882112706710226,1.6508798353807357,2.257770253490238,3.6821585431707446,-0.12123404843549679,-0.4262850391008233,-0.244
3.364180859778409,1.9078074421805133,2.849854968535279,1.5104460836230935,2.2007815447810675,3.911679319178963,-0.024317225515354462,-0.5023029910444384,-0.24
3.5351456273664783,2.028475673780337,2.848377679254392,1.4466691325885426,2.176861680691074,4.128915491448395,0.1144974211091861,-0.5005219482771371,-0.236
3.7172487399784333,2.152065741641298,2.875885263188092,1.4682186980078586,2.182558936913104,4.319647386250179,0.2924605771576392,-0.4186312859053463,-0.23199999999999998
3.905680780085532,2.268291560508018,2.9280373089874723,1.5771640800487858,2.2121294193345205,4.470304026291028,0.5051246677263279,-0.25814236061705564,-0.22799999999999998
4.095702040666262,2.3669750893557198,2.9984430999607334,1.7689521354234614,2.2582053643415976,4.56908038199548,0.7468297314364017,-0.023952145525507618,-0.22399999999999998
4.283029326451897,2.438888822931579,3.079197902053675,2.0327291408081964,2.3124102589664797,4.606781854753309,1.0110735166773612,0.27608863944036877,-0.21999999999999997
4.463911451872598,2.4763133917495312,3.161330065811247,2.3519112464108205,2.3658010941201084,4.577246192089807,1.2906690525119202,0.6314917968172189,-0.21599999999999997
4.634863592139381,2.4732610297118587,3.2351109922135137,2.7049667226321854,2.409115137192236,4.477309997384239,1.5776920488776505,1.029319474956953,-0.21199999999999997
4.792154119333257,2.4254270472949404,3.2902706453673254,3.066431365500543,2.4328940994243915,4.306407142490522,1.863316407478654,1.454325820962513,-0.20799999999999996
4.931224914223047,2.3300067744804576,3.3162233324891894,3.4082062690406345,2.427617534985007,4.065972297552012,2.1376955992173436,1.889194108070889,-0.20399999999999996
5.046247198780399,2.1855282753785548,3.302416543401114,3.7011664490391443,2.383976402264071,3.758845874568145,2.390046454109347,2.3150100630601766,-0.19999999999999996
5.129964150972003,1.9917998458233679,3.2388646534364596,3.9170400137156065,2.2933550954578528,3.3888303806871805,2.6090273416042855,2.7120467726596726,-0.19599999999999995
5.173873892897432,1.749983204282688,3.1168421854999977,4.03042598887633,2.1484930835276774,2.9604578936045605,2.783401059393531,3.0608330743449397,-0.19199999999999995
5.168705493826167,1.4627212884827585,2.9296295267317727,4.020744305818886,1.9442104832188545,2.478938757905627,2.902877848896263,3.3433818358563614,-0.18799999999999994
5.105071108578879,1.1342056887957306,2.6731604986514803,3.873882833021529,1.6780394980402331,1.9502061050155275,2.9589807058447875,3.5444029426537136,-0.18399999999999994
4.974149667329964,0.7700699322609221,2.34642388147977,3.5833280355246955,1.3506110729814704,1.3809546967892274,2.9457703092697844,3.6523230240141764,-0.17999999999999994
4.768266642048147,0.3770313463485788,1.9515106858977234,3.150626618724099,0.9656887927392429,0.7785834333545828,2.860295431646781,3.6599635459489153,-0.17599999999999993
4.48127479593352,-0.03773531275203901,1.4932653162823357,2.5851133832119984,0.5298054993412142,0.15097890475187778,2.7026826082977693,3.564778965316187,-0.17199999999999993
4.108706165512557,-0.46743583574384634,0.9785819547226513,1.902944016054916,0.051533751724691136,-0.49387919220665033,2.4758419752718974,3.3686258318737665,-0.16799999999999993
3.647738696199044,-0.9065811027825385,0.41546893020332615,1.1255712868716965,-0.45950347763152194,-1.1484560391167944,2.184838292282634,3.077114342165214,-0.16399999999999992
3.0970770849863603,-1.3518312256796623,-0.18794103145824273,0.277874755316459,-0.993719557336109,-1.8062572143803974,1.8360425707841366,2.698665872077625,-0.15999999999999992
2.4568694681964827,-1.8025882374975737,-0.8242434623051436,-0.6138172709589339,-1.5425644108198746,-2.4623626976669324,1.4362242959943483,2.2434442636013454,-0.15599999999999992
1.7287661919158197,-2.2611991270295175,-1.4873160029492276,-1.5235891090485325,-2.0992718772953647,-3.113777288621922,0.9917541981744128,1.7223348384424533,-0.1519999999999999
0.9161795196288315,-2.7326939901033516,-2.1724754790937806,-2.4275052799832664,-2.6592410607197263,-3.75950680418014,0.5080582303733024,1.146112541671606,-0.1479999999999999
0.024736937390801145,-3.224064333717582,-2.876222243711082,-3.304771603593306,-3.2200130858952356,-4.400325152960748,-0.010594588120436121,0.5248815583651566,-0.1439999999999999
-0.9371453635087025,-3.74316501462202,-3.595635848252074,-4.138442277735191,-3.7808801775489798,-5.038258061471214,-0.5609552287103295,-0.13219556643523145,-0.1399999999999999
-1.9576920891727516,-4.297383357210864,-4.327548424865129,-4.915682765839109,-4.342224309515287,-5.675861138956027,-1.1403576178598247,-0.8169151014287799,-0.1359999999999999
-3.021350904476273,-4.892254838326111,-5.067661003164402,-5.627648638967545,-4.904721819965416,-6.315409291701603,-1.74608597015552,-1.5218704518685058,-0.1319999999999999
-4.10867586581852,-5.530217349726669,-5.809782301769732,-6.269083935605781,-5.468567103506072,-6.958137596616822,-2.374688600066762,-2.2402091977236736,-0.1279999999999999
-5.196630194235536,-6.209683066884364,-6.545354620965533,-6.837769092803065,-6.032858688963233,-7.603670398561602,-3.0213877977414367,-2.9654069962599965,-0.12400000000000011
-6.259363224076154,-6.924561839676369,-7.263380581401428,-7.333942884045688,-6.595249106514871,-8.249735883545396,-3.6797062251653556,-3.6911302096278877,-0.1200000000000001
-7.2694306429314075,-7.6642939492955415,-7.950781108300702,-7.759781265007374,-7.151889690487548,-8.892191651549657,-4.341370159460085,-4.411211054423645,-0.1160000000000001
-8.199341914171988,-8.414361056577766,-8.593121224937594,-8.118955766201426,-7.697623571910381,-9.525305674687822,-4.996478040219218,-5.119706292795521,-0.1120000000000001
-9.023260137782634,-9.157169930762118,-9.175567782166572,-8.416243664140017,-8.22632418476256,-10.14217887190113,-5.633866801797502,-5.810975485478053,-0.1080000000000001
-9.718660760601427,-9.873163266051504,-9.68391332385882,-8.657140711730491,-8.73126120757658,-10.735182559153076,-6.241587347046952,-6.479712079775041,-0.10400000000000009
-10.267770626405884,-10.542006000067337,-10.10551101035954,-8.847433481715592,-9.205396922834957,-11.296314007137951,-6.807410159838999,-7.12088561415976,-0.10000000000000009
-10.658644514085132,-11.143714589008527,-10.43000220216035,-8.992711103866371,-9.641557068198182,-11.817426554849368,-7.3193047584934945,-7.729588839297192,-0.09600000000000009
-10.885787433325701,-11.659635592050543,-10.649771697825932,-9.097830321357348,-10.032471069237113,-12.290349163538261,-7.765864176628099,-8.300819247864558,-0.09200000000000008
-10.950299480474072,-12.073237291873715,-10.760133301194438,-9.166393901348968,-10.370734666818924,-12.706964252803678,-8.136682369980793,-8.829262562251499,-0.08800000000000008
-10.85959734024331,-12.370741854433284,-10.75931825362312,-9.20034957412777,-10.648802014021266,-13.05935020645113,-8.422733170014565,-9.309180624035674,-0.08400000000000007
-10.626823057273882,-12.541666302389693,-10.648380403587675,-9.199834334001327,-10.859134869239535,-13.340095192944593,-8.616816435620589,-9.73451074997941,-0.08000000000000007
-10.270054423219598,-12.579329533075978,-10.431115231865514,-9.163348540775875,-10.994596550304687,-13.542836680704584,-8.714103656351828,-10.099233347170523,-0.07600000000000007
-9.811382117311245,-12.481322143426347,-10.114020262116755,-9.088253955716194,-11.049086642331902,-13.66299020545127,-8.7127405229789,-10.397973190914998,-0.07200000000000006
-9.275857062468834,-12.249865910421361,-9.706246943995883,-8.97149776800036,-11.018316479647744,-13.69854458635721,-8.614392691098969,-10.626715978313023,-0.06800000000000006
-8.690283557567762,-11.891955648576607,-9.219455976220097,-8.810418460307313,-10.900572866248027,-13.65075951201433,-8.424595241591273,-10.783487203225631,-0.06400000000000006
-8.081854160473476,-11.419193760757494,-8.667502265666021,-8.603499162871968,-10.697321447135602,-13.524615684065315,-8.152794611014782,-10.868859918648461,-0.06000000000000005
-7.47667476740241,-10.847283213012965,-8.065924714812812,-8.35097855430796,-10.413544613353304,-13.328921298559237,-7.812034390152282,-10.88620987003946,-0.05600000000000005
-6.898288264260266,-10.195213667471654,-7.4312751775555705,-8.055282161322728,-10.057768386840811,-13.07604741615521,-7.418307142844628,-10.84169697124502,-0.052000000000000046
-6.366349469280912,-9.48423417038962,-6.780368407797828,-7.721278221108752,-9.641788613470714,-12.781326787705394,-6.9896510806325365,-10.744003019874986,-0.04800000000000004
-5.895611721233638,-8.736733335940702,-6.129551888238886,-7.356377367706166,-9.180142476922219,-12.462189163040826,-6.545097283497299,-10.603881192240964,-0.04400000000000004
-5.495345780752156,-7.975134822394978,-5.494073148117789,-6.97048001232544,-8.689378797428715,-12.137114585990332,-6.103566158438967,-10.433566107543506,-0.040000000000000036
-5.169235923771319,-7.220872398334502,-4.8875744479556715,-6.575743709667717,-8.187167583002108,-11.824473206292282,-5.68278320701678,-10.246067014531354,-0.03600000000000003
-4.915715408048379,-6.493460632444834,-4.321696094665788,-6.186121452269908,-7.691274962782486,-11.541303895088356,-5.298254911207036,-10.054347353404886,-0.03200000000000003
-4.728642078963567,-5.809647940279931,-3.805741546701887,-5.816629638107043,-7.218429447491353,-11.302079165083795,-4.96233009868487,-9.870399033792324,-0.028000000000000025
-4.598188334209634,-5.182638494698862,-3.346357816785341,-5.48234262401454,-6.783123485404261,-11.117515521699373,-4.683374369421098,-9.70424851561477,-0.02400000000000002
-4.511828810996027,-4.621396665619257,-2.947212778221257,-5.1971699355246495,-6.396427656510859,-10.993514983627717,-4.465104676060258,-9.562974753808499,-0.020000000000000018
-4.455346034787323,-4.130092243916744,-2.608700246717953,-4.972539111863615,-6.064936337893184,-10.930357880008934,-4.306161892699124,-9.449863576099053,-0.016000000000000014
-4.413821152518412,-3.707787782064918,-2.3277569421345685,-4.816162971104943,-5.789998082426922,-10.922292691124952,-4.200024208110129,-9.363851136378047,-0.01200000000000001
-4.372610740430863,-3.3484868830159935,-2.0979063929100854,-4.73109217955119,-5.567390047702241,-10.95766363303155,-4.13536148497065,-9.29940153941776,-0.008000000000000007
-4.318315982636338,-3.041637111166052,-1.909632235107188,-4.71522675356714,-5.387557622257392,-11.019665591115013,-4.096886531734158,-9.24691040240061,-0.0040000000000000036
-4.239729362708989,-2.773115851397989,-1.751126548646629,-4.761386657046317,-5.23646034164543,-11.087722914306,-4.066679417265111,-9.193636270780116,0.0
-4.128712709524577,-2.526643655155985,-1.6093790642714854,-4.857944779013303,-5.096966084878735,-11.139378498086087,-4.02587249629677,-9.125065252099757,0.0040000000000000036
-3.980933864699192,-2.2854914882356714,-1.4714959535644063,-4.989932217785398,-4.950644623772317,-11.152483736345394,-3.9565166487398415,-9.026541810127409,0.008000000000000007
-3.796371906714962,-2.0342887594327244,-1.3260779908882887,-5.140452534267436,-4.779744581546987,-11.107419883453025,-3.843414687142167,-8.884959983699234,0.01200000000000001
-3.579495382600621,-1.760705620506948,-1.1644569497533144,-5.292198518413075,-4.569102447773414,-10.98906788528104,-3.6757009836676744,-8.690298449683821,0.016000000000000014
-3.3390327142275695,-1.456786018111309,-0.9815967206862636,-5.428862498018996,-4.307736854437242,-10.788280313263146,-3.4479641632102447,-8.436799097396479,0.020000000000000018
-3.0872957710523905,-1.1197536977379219,-0.7765158311356998,-5.536272997235124,-3.9899300272397604,-10.502689204044204,-3.1607575794903364,-8.123638202996318,0.02400000000000002
-2.8390822819825927,-0.7521945239404987,-0.5521703301053846,-5.603164657684016,-3.615682457511459,-10.136789465519715,-2.820423080219525,-7.755020014280119,0.028000000000000025
-2.610254806138075,-0.3616151871952429,-0.3148290937206896,-5.6215707816426805,-3.190526018969107,-9.701344849098211,-2.4382560627343053,-7.339717654268896,0.03200000000000003
-2.416153652706979,0.04053252939930078,-0.07305490915177959,-5.5868938504732135,-2.7247718969437513,-9.212249262862127,-2.0291406889559727,-6.890171326157177,0.03600000000000003
-2.27003228530543,0.4402089519600387,0.16354276935668052,-5.497742878226667,-2.2323352424646172,-8.689024761644806,-1.6098593455121792,-6.421308700362928,0.040000000000000036
-2.1816994352024857,0.8223421754647188,0.38560146241413484,-5.355625377451929,-1.7293100255572966,-8.15314466714414,-1.1973133116242394,-5.949267005959057,0.04400000000000004
-2.1565170553701005,1.1724010648810026,0.5851807184651928,-5.164558018007981,-1.2324664985850289,-7.626344859360579,-0.8068765532565078,-5.490172198510497,0.04800000000000004
-2.194850237879994,1.4778283657572315,0.7566913074602993,-4.930632113528907,-0.757818957654365,-7.1290465752446295,-0.45105012074871703,-5.0590807724669675,0.052000000000000046
-2.2920066036498317,1.72921214374989,0.8974978200589859,-4.661549855209617,-0.31937394387718054,-6.678976077295996,-0.13851079559174387,-4.6691336019847975,0.05600000000000005
-2.438645565305811,1.921115860417986,1.0081635510026177,-4.366135243993178,0.07187302770575806,-6.290035214397655,0.12642318301287073,-4.33092426355804,0.06000000000000005
-2.6215887053234024,2.052532390741544,1.0923546147313548,-4.053817312871114,0.4086630307936711,-5.971451003137894,0.343938481011236,-4.052053817933344,0.06400000000000006
-2.8249307328712323,2.1269656190336836,1.1564564145571714,-3.734085693669235,0.6879186293401075,-5.72721496159357,0.5185422939926657,-3.8368316069132042,0.06800000000000006
-3.0313417121736275,2.152164605869969,1.2089697678571716,-3.415934349264846,0.9109127079623137,-5.55581924640141,0.6586116880029089,-3.686087212750964,0.07200000000000006
-3.223459228047545,2.1395411595479508,1.2597489683623702,-3.1073327674594666,1.0831603177778897,-5.4503035490902,0.7757345027681056,-3.5970797636152505,0.07600000000000007
-3.385281960523782,2.103303558079299,1.3191330230152836,-2.81478196387168,1.2140269704659863,-5.398634276738412,0.8838854939958374,-3.5635201152693092,0.08000000000000007
-3.5034892498767967,2.059344661800115,1.3970125421681392,-2.543018560526007,1.3160484336195963,-5.384439245279342,0.9984644968049258,-3.5757492422499646,0.08400000000000007
-3.5686254075268073,2.023933241229891,1.5018699624775464,-2.29492407431795,1.4039681568100706,-5.388111055599141,1.1352119675800758,-3.6211304501037347,0.08800000000000008
-3.576097585578918,2.012276848008018,1.639834862034956,-2.071674832568351,1.4935239737028845,-5.388259522727494,1.3090244202614014,-3.684700684370469,0.09200000000000008
-3.526934404977703,2.0370547281030356,1.8138132797917248,-1.8731279534361287,1.6000570782310388,-5.3634355939516825,1.5327230084549364,-3.750083984158198,0.09600000000000009
-3.428241849549511,2.107050446427575,2.022772389477993,-1.6983906445022987,1.7370613069982077,-5.293985163868424,1.8158686858605204,-3.8006132796352774,0.10000000000000009
-3.2932847551955873,2.226031358789055,2.2612749511929175,-1.5464811673011711,1.914821885287485,-5.163847073936993,2.1637448173612324,-3.8205583287818676,0.10400000000000009
-3.1411257465864666,2.3920183206935275,2.519353813269579,-1.4169705461938902,2.139300740857759,-4.962096999941886,2.576631095912043,-3.7963311171590877,0.1080000000000001
-2.9957714387446206,2.597064312396978,2.7827963898719505,-1.3104947499596902,2.4114099481010336,-4.68405483279957,3.049473391522413,-3.717535871446366,0.1120000000000001
-2.884809529498911,2.827616168859316,3.0338747451700407,-1.2290453192154132,2.726777594409169,-4.331812709549958,3.5720192656022007,-3.5777448490493913,0.1160000000000001
-2.8375730442343596,3.065469052885908,3.252508057047258,-1.1759820318566483,3.0760525018792957,-3.914103443349179,4.1294409630816284,-3.3749122558406217,0.1200000000000001
-2.882937612714366,3.2892430986659824,3.417782909145515,-1.1557615560281345,3.4457209699323372,-3.4455121782463536,4.703408007749989,-3.1113866974100657,0.12400000000000011
-3.0469294950932757,3.4762322654961406,3.5096957111007305,-1.1734290344190612,3.8193352371049336,-2.9451244219735404,5.273508601515493,-2.7935394863388314,0.1280000000000001
-3.350373482188863,3.6044200704870835,3.510939412382967,-1.2339580500346752,4.178999870352201,-2.434779903532299,5.818868296156346,-2.431076880036137,0.13200000000000012
-3.8068264439194874,3.6544384360646407,3.408543391935028,-1.3415410970291262,4.506938726038613,-1.9371482145802899,6.3197866205520485,-2.036138981810461,0.13600000000000012
-4.421024608489918,3.611260354462073,3.1951870345591735,-1.4989335799075698,4.786967019225707,-1.4738553478771197,6.759209388373653,-1.6223059083095777,0.14000000000000012
-5.188024608133552,3.465456398567531,2.870039687878606,-1.706943669112537,5.00571586056637,-1.0638705455273723,7.123878971466637,-1.2036298538083596,0.14400000000000013
-6.093138802233665,3.2139087775880344,2.439036894715059,-1.964130781390712,5.153504432397242,-0.7223089091260265,7.4050618663539085,-0.7937809592953885,0.14800000000000013
-7.112658833506466,2.8599624119326896,1.9145857775654944,-2.266723073398906,5.224826488547887,-0.45972280084730865,7.598834034237203,-0.4053382680884825,0.15200000000000014
-8.215252568000267,2.4130801695556237,1.314781034416644,-2.6087067947933993,5.218491237516954,-0.2818670808124901,7.7059820252670574,-0.0492002585771365,0.15600000000000014
-9.3638455314523,1.8881258969498795,0.6622725938474664,-2.9820089239157284,5.137501932257323,-0.18986045651913722,7.73162263468364,0.2659361196366367,0.16000000000000014
-10.517779899673641,1.30440532013979,-0.017064466592760102,-3.376706152097583,4.988753496977842,-0.18064371741797794,7.684644529902999,0.5340611622935466,0.16400000000000015
-11.63507227513559,0.684562884240916,-0.6955385914967948,-3.7812364567409884,4.782596255311289,-0.24764664200434852,7.577040938036103,0.7522872603764389,0.16800000000000015
-12.674638871836544,0.053390238436804204,-1.3450557972792756,-4.1826377776244446,4.532272578769935,-0.3815983095023772,7.423154317342487,0.9211623471657546,0.17200000000000015
-13.598399190352481,-0.56342803688294,-1.938502699637887,-4.566869580373686,4.253208244141075,-0.5714342161806902,7.238816816331713,1.0447562250218763,0.17600000000000016
-14.373191313834317,-1.140612244213137,-2.451075675134297,-4.919274699774353,3.962142116233654,-0.805258394597872,7.04036465434131,1.1304179691898752,0.18000000000000016
-14.972428294420595,-1.6545906858798942,-2.861519961472501,-5.225207850336651,3.676108193986405,-1.071306024643861,6.8435373155521875,1.1881514321924012,0.18400000000000016
-15.377405887418282,-2.084736571034853,-3.1532128695181485,-5.470804293187148,3.4113313089657917,-1.3588293559022928,6.662331310880891,1.2296369245502665,0.18800000000000017
-15.578157799416815,-2.4144389803580224,-3.314999179213737,-5.643808282377907,3.182141405261087,-1.6588125428265752,6.507936888003459,1.267013934538423,0.19200000000000017
-15.573761862257134,-2.631899281671851,-3.3416800543757064,-5.73434584666071,3.000034727732451,-1.9644200725421523,6.38791805750991,1.3116036135794549,0.19600000000000017
-15.37203615926551,-2.7305613744435457,-3.234077937601445,-5.7355242367722505,2.873003696100764,-2.2711045071684195,6.305784141698607,1.372768379098087,0.20000000000000018
-14.988629062489897,-2.709130145245331,-2.998652349563212,-5.643777767927188,2.80521557413223,-2.576348817806068,6.261038973166652,1.4570693225956486,0.20400000000000018
-14.445590694849614,-2.571200828421843,-2.6467162895880563,-5.458947261083917,2.7970503353148453,-2.8790937630746156,6.249695102402254,1.5678014325867415,0.20800000000000018
-13.769589502471527,-2.3245890436618954,-2.193373570682453,-5.184149095947044,2.8454361425672765,-3.1789758253681946,6.265141284449347,1.7048966786298123,0.2120000000000002
-12.989979967908733,-1.980490153867425,-1.6563358139389397,-4.825529562746099,2.9443762804836386,-3.4755418021751434,6.29919295997198,1.8651238422604237,0.2160000000000002
-12.136929039599359,-1.552599615781095,-1.0547767866650437,-4.392001075253777,3.085553260069389,-3.767600266714575,6.343150025790753,2.0424928438445114,0.2200000000000002
-11.239781503396431,-1.056306652666681,-0.4083553060657765,-3.895031184688861,3.258909993941362,-4.052834109621284,6.38871200611921,2.228771211354846,0.2240000000000002
-10.325797427934807,-0.5080421338958754,0.2635032979255172,-3.3485148317649682,3.4531330206012663,-4.32774825270969,6.428636731210293,2.4140258713392013,0.2280000000000002
-9.419324122528854,0.075188573111402,0.9420385303528604,-2.7687035507069973,3.6560059833006266,-4.587959083583626,6.457081566882699,2.5871259846700525,0.2320000000000002
-8.541376706895653,0.676124536390974,1.6093482408914686,-2.1741009006528365,3.8546635851001354,-4.828749289971747,6.469643086517614,2.7361923161015747,0.2360000000000002
-7.709530014384483,1.2775090432600102,2.248453660524688,-1.585198151825401,4.035825139157218,-5.045747688656296,6.463181710104684,2.84902953825981,0.2400000000000002
-6.938005450745648,1.8623797010458343,2.84335032847637,-1.0239520061717517,4.186084840122327,-5.235587814488913,6.4355373902125415,2.913588247736079,0.24400000000000022
-6.237865806694862,2.414430065961024,3.3791132921796803,-0.5129846927816578,4.292285674506252,-5.396448857469046,6.385205770344835,2.9184658275583537,0.24800000000000022
-5.617272142834678,2.9184273619074133,3.842068523511442,-0.07456706741147201,4.3419476741559135,-5.528444244674932,6.310994775450147,2.853406005938416,0.2519999999999998
-5.08177782264661,3.360642994493009,4.22001209155063,0.27051323217634976,4.323698856425287,-5.6338557334420925,6.211667000549539,2.709739744715114,0.2559999999999998
-4.634631072371139,3.729259710943216,4.5024603423901555,0.5040986635837216,4.22767433416517,-5.717208220199272,6.085601675574135,2.4807364111719608,0.2599999999999998
-4.277048420643399,4.014738828616652,4.680926923216756,0.611744335649437,4.0458787325895775,-5.785167787664251,5.930546213828262,2.16187463955162,0.2639999999999998
-4.008428338209934,4.210137370832703,4.749222007444735,0.5836686348185843,3.7725194954396195,-5.846250277350054,5.743530912289607,1.751058497485782,0.2679999999999998
-3.8264970550207686,4.3113565207635025,4.703754675897298,0.415504770775998,3.4043121424435925,-5.910352113075992,5.5209873313818845,1.2487915729425083,0.2719999999999998
-3.727398542832571,4.317296868621351,4.543808860460836,0.1087927653717126,2.9407529441559768,-5.9881403476976685,5.259070004412173,0.6583069771378689,0.2759999999999998
-3.705749809007424,4.229898902163792,4.271762971039171,-0.3288294258226904,2.384356275570217,-6.090353960242763,4.9541524204765075,-0.014348079710298537,0.2799999999999998
-3.754691213956748,4.054047845410505,3.893220474382465,-0.8837601002367222,1.7408474934621647,-6.227079998228395,4.603445791530931,-0.7602718590334856,0.2839999999999998
-3.865973142351782,3.7973180481562196,3.417008451054914,-1.5369118726432331,1.019281018416254,-6.4070784875423215,4.205666650992879,-1.5677194037817213,0.2879999999999998
-4.030118747684754,3.469541600007235,2.8550008956658712,-2.264542465366123,0.2320365770774234,-6.637224629461888,3.7616672176382173,-2.42218443142803,0.2919999999999998
-4.23667693556158,3.0822188881511914,2.2217467874684793,-3.0394182209350773,-0.6053482859555045,-6.9221072407514725,3.2749479787402613,-3.306574294855338,0.2959999999999998
-4.474546628988015,2.6478272324884986,1.5339171156942495,-3.832250825976145,-1.474533180532043,-7.26378572842479,2.751983664303337,-4.201505012850911,0.2999999999999998
-4.73233368534933,2.17910521136274,0.8096119787679387,-4.6133137153150585,-2.3549253162279498,-7.661686099118949,2.2023026329172484,-5.08575336907562,0.3039999999999998
-4.998692822672271,1.6883973514506263,0.06759132421547746,-5.354115216903961,-3.2244149979044017,-8.11260848034327,1.638278922480879,-5.93689884184013,0.30799999999999983
-5.262597887820658,1.1871478363560488,-0.6734815937291206,-6.028976073172449,-4.060254269181463,-8.610811147930187,1.074639467131518,-6.732152191430806,0.31199999999999983
-5.513485925553316,0.6856228067277795,-1.3956825644525648,-6.6163465903850165,-4.84000524185342,-9.148132051898466,0.527740080668865,-7.449317969354674,0.31599999999999984
-5.741254034518138,0.1928989395989896,-2.0822800371780787,-7.09972890265319,-5.542478815302016,-9.714123385429895,0.014691055973205488,-8.067811113088922,0.31999999999999984
-5.936146566251793,-0.2829130357934832,-2.717989876372679,-7.468141500615363,-6.148608313067956,-10.29620726864791,-0.44759169204635807,-8.569653833381016,0.32399999999999984
-6.088619904633785,-0.7343040166624032,-3.2890880100268727,-7.716143940956937,-6.6422325411159475,-10.879889478920068,-0.8433496037717805,-8.940396883605702,0.32799999999999985
-6.189283788372265,-1.1539814743227919,-3.783470361729273,-7.843495250850277,-7.010774404525937,-11.44907252517819,-1.1589012766515585,-9.169915500105136,0.33199999999999985
-6.228988512559039,-1.5345661951717229,-4.190735586512322,-7.854537059406655,-7.245789062468873,-11.986486360130696,-1.38344852729938,-9.25301945933527,0.33599999999999985
-6.199074975528531,-1.8684288656698325,-4.502321166249717,-7.757382298467519,-7.34333373515598,-12.47422038384304,-1.5096842103683323,-9.189801324214526,0.33999999999999986
-6.091758304935669,-2.147682544864592,-4.711680030717691,-7.56297751323896,-7.304105025174937,-12.894320118499458,-1.5341274486203567,-8.985651305978974,0.34399999999999986
-5.900597803290282,-2.3643301298105803,-4.814470787729327,-7.284113398706569,-7.133317874871078,-13.2294237954531,-1.4571602561063564,-8.650910258503723,0.34799999999999986
-5.621013540423703,-2.510569707621503,-4.808749064385929,-6.934481143704278,-6.840354341172781,-13.4634474292441,-1.2828091050228156,-8.200203063033667,0.35199999999999987
-5.250818984878449,-2.579258825501873,-4.695163289355069,-6.527883193797013,-6.4382557727876675,-13.582346817110297,-1.0183650261994208,-7.651553178032969,0.35599999999999987
-4.790729453974627,-2.5645109020388923,-4.477150311559602,-6.077679612171612,-5.943137616209815,-13.574962710992494,-0.6739360879703021,-7.025391948246657,0.3599999999999999
-4.244780725795212,-2.4623491638015653,-4.161094057834592,-5.596486579879499,-5.373570478267905,-13.433895819669024,-0.26198236635230493,-6.343545659392604,0.3639999999999999
-3.6205734299602828,-2.271303933104235,-3.756377703220064,-5.096072215044907,-4.749923028303396,-13.156298092506995,0.2031684316854688,-5.628241764142335,0.3679999999999999
-2.9292694790854004,-1.9928367252279593,-3.275255083361787,-4.587354267237881,-4.093637434609331,-12.74444612009276,0.7058506815917328,-4.901155684456261,0.3719999999999999
-2.185309695589171,-1.6315155594311204,-2.7324998646001126,-4.080411155553897,-3.4264210664041372,-12.20599374860943,1.2296485289338055,-4.182528565972705,0.3759999999999999
-1.4058775664175849,-1.194929407387465,-2.144844727049733,-3.584459318475849,-2.769376358698772,-11.553864582010254,1.7580198203278847,-3.490408193191481,0.3799999999999999
-0.6101756168987068,-0.693384145693825,-1.5302684751296416,-3.1077960137810625,-2.142127695053068,-10.805808522837173,2.2749049284522953,-2.8400772486691097,0.3839999999999999
0.1814105875797051,-0.1394433141454794,-0.9072039024251485,-2.6577298173930193,-1.5620159763166228,-9.983681451268609,2.765267190125064,-2.2437174314114685,0.3879999999999999
0.9482085045555424,0.4526385971646505,-0.2937221446637768,-2.240513543878281,-1.0434113686555662,-9.112503147678428,3.2155442339686,-1.7103124066890156,0.3919999999999999
1.670192426870656,1.06757228624919,0.29327772785767053,-1.8612741657402205,-0.5971606042357003,-8.219323316970412,3.614035301492896,-1.2457384486225618,0.3959999999999999
2.328944442885283,1.6897765504389557,0.8388579853891706,-1.5239242573330694,-0.23016300933853392,-7.331909938842994,3.9512763560934494,-0.8529573907067926,0.3999999999999999
2.908619598833319,2.3041963369614993,1.3307889558054657,-1.2310441088710977,0.05493205112781219,-6.477284148230358,4.220449334505365,-0.5322229002210322,0.4039999999999999
3.3968650627832893,2.897157553330326,1.7602163443561125,-0.9837363621250376,0.2599006942836901,-5.680158483045041,4.4178405011434485,-0.2812349139219066,0.4079999999999999
3.785611209395213,3.457185335864469,2.1221926826543887,-0.7814738034525526,0.3909659238262835,-4.961381714083216,4.543312492548136,-0.095225392636569,0.4119999999999999
4.071627602071655,3.975681450941739,2.4159977433943127,-0.621984318763318,0.45861394517337245,-4.336540519277086,4.600695508447618,0.03297850718982195,0.4159999999999999
4.256733535874801,4.447346649908231,2.6451665107873716,-0.5012350897968639,0.4771416918526805,-3.8148951686378716,4.597960068378344,0.11281657429114489,0.41999999999999993
4.347581932076078,4.870259383752437,2.8171626153783826,-0.4135767009767459,0.46388672623296107,-3.3988122356277093,4.547036857354561,0.15567594597542347,0.42399999999999993
4.35499563809458,5.245581936160272,2.942683424937616,-0.35208037151814064,0.43813815027282743,-3.0837968223445054,4.463207807880344,0.17432309776357066,0.42799999999999994
4.292911201468605,5.576938727959615,3.0346474231199316,-0.30905662850136,0.4197922468667761,-2.8591375438605646,4.364082959707688,0.18209049575036915,0.43199999999999994
4.177056876472412,5.869575649201892,3.1069753792715837,-0.2766970357410064,0.4278761888666664,-2.7090862022958357,4.268264122151613,0.19188957656613903,0.43599999999999994
4.023545216177547,6.1294526359548955,3.173321819425526,-0.2477418418143079,0.4791045812260106,-2.6144175801547265,4.19385991680332,0.21517323643703903,0.43999999999999995
3.847583971225157,6.362438747914393,3.2459336763571973,-0.2160541551487123,0.5866504850051619,-2.5541641612508363,4.157050919326129,0.26099930231876184,0.44399999999999995
3.6624858431394522,6.573757513654115,3.3347945643813053,-0.17699068088400308,0.7592928331370548,-2.5073117203018827,4.170896819883951,0.33533958968748595,0.44799999999999995
3.4790830246838063,6.76776343151662,3.4471492177658027,-0.12750800579669974,1.0010392093042608,-2.4542831703373404,4.244523056679779,0.4407302997394111,0.45199999999999996
3.305551107130949,6.948036741213277,3.5874127231473025,-0.06601485723969021,1.3112346231450382,-2.378112483283693,4.38274096905326,0.5762869364170946,0.45599999999999996
3.1475637689990155,7.117702495470802,3.7573924431075327,0.007959918610332592,1.6850893080310032,-2.2652807765768297,4.5860804831593756,0.7380461342761876,0.45999999999999996
3.0086673989522956,7.279843877708813,3.9567164775356107,0.09419189559332342,2.114518211494823,-2.106224363367571,4.851173443009233,0.9195703095909004,0.46399999999999997
2.890780386954884,7.437890457659364,4.183369187710627,0.19219854503738146,2.5891792858178238,-1.8955312059970717,5.1714146858323335,1.1127510447120692,0.46799999999999997
2.7947556477333695,7.595897292530765,4.4342579223460765,0.30163434831775976,3.0976054707420295,-1.6318403111493198,5.537825627183291,1.3087496245661032,0.472
2.720968394780005,7.758667127695605,4.705755089845616,0.42260607817620927,3.628329103227722,-1.317467658364591,5.9400367993152114,1.4990025592765128,0.476
2.669891900957458,7.931692944775198,4.994168431132518,0.5558761084773085,4.170893264454758,-0.9578084465605677,6.367289051281325,1.6761960844455273,0.48
2.642606993335501,8.120910777859054,5.296092151295956,0.7029192678414103,4.716639263968787,-0.5606019774560593,6.809333959742993,1.8350883027313836,0.484
2.641174579323122,8.332262725621048,5.608593448336073,0.8658023375393556,5.25916791234455,-0.13517349969394665,7.257106803915721,1.9730509704138681,0.488
2.6688031596750115,8.571089450505239,5.92920529868254,1.046876628260561,5.79440673346332,0.3082330887762777,7.7030661870517,2.0902306455790898,0.492
2.729770475250632,8.841403161026223,6.255729549252103,1.2483110622051168,6.320274538591659,0.7589518010879849,8.141148272770693,2.1892885722746906,0.496
2.829102939256248,9.145129531227658,6.585896517955336,1.4715334324463096,6.83600665989735,1.2061976934609746,8.566363346956656,2.2747553477534126,0.5
2.972066285042264,9.48144013274482,6.916967637033309,1.716679824719267,7.341273706099298,1.639217893249052,8.974152202767778,2.3521156712479647,0.504
3.1635617756417087,9.846313353202511,7.2453945204174675,1.9821685484561573,7.835276720377659,2.0473842032388716,9.359693728402057,2.4268038569566137,0.508
3.4075388523614696,10.232446843006883,7.566647260344314,2.264505807337672,8.316011964841083,2.420341299028756,9.717379492267705,2.5033167650636994,0.512
3.706517847858277,10.629590471121872,7.875287635517627,2.5583884070598732,8.779856906220093,2.7482998551892934,10.040624572499608,2.584616205095838,0.516
4.061273632280076,11.025287968941662,8.165298513110082,2.8571018991048422,9.221546508168494,3.0225030561394255,10.322080085800808,2.671906181621489,0.52
4.470686619759114,11.405937901578554,8.430615978144909,3.153145716848142,9.634518539128745,3.235826560012628,10.554197377471688,2.7647704524312062,0.524
4.931739461241511,11.758034671467437,8.665768317194013,3.4389729507793234,10.011538394431811,3.3834214974090084,10.730011195677356,2.8615809214596903,0.528
5.439625031018051,12.069431260354301,8.866509498349195,3.7077164791649437,10.345476837086368,3.46328482775116,10.843976407412901,2.9600498093218506,0.532
5.98792797905914,12.33047192627137,9.030340586888139,3.9537821870237777,10.630105268214535,3.47664258849308,10.892705133928894,3.057793658362657,0.536
6.568851137393994,12.534875293131215,9.15684251697742,4.173225558784277,10.860792746325615,3.428065485488459,10.875499120763086,3.152802156328352,0.54
7.173479808488891,12.680302320929437,9.24779396292366,4.363885746302448,11.03503269734185,3.325299276808187,10.794640258719186,3.2437549008885767,0.544
7.792095647105043,12.768598975889793,9.307096921522367,4.525308476190246,11.152774903263397,3.1788569010417356,10.655462166303368,3.330185497154755,0.548
8.414547059208958,12.805734388548894,9.340553618130208,4.658517639994993,11.216564784704751,3.00145055625074,10.46624974687081,3.412528124629679,0.552
9.030650153336028,12.80145216274874,9.355522666506003,4.7656848504055045,11.231487578535722,2.8073261825226425,10.237994649345653,3.492082085758849,0.556
9.630550956891762,12.768629675212514,9.36044644300283,4.849712450076095,11.204893197971906,2.611516808963627,9.98399163015153,3.5709026513362816,0.56
10.204958069103666,12.722330060242422,9.364219293061703,4.913721537190165,11.145867971573672,2.4289929688952334,9.719229788024363,3.65159903701506,0.5640000000000001
10.745181395952883,12.678562710047771,9.375387105432175,4.960451087667929,11.064448138807341,2.273693482746069,9.459545616302572,3.737021062974947,0.5680000000000001
11.242982757393426,12.652837575458443,9.401231697419425,4.991626486458737,10.970635548770892,2.157472658579186,9.220564864663164,3.8298507954202994,0.5720000000000001
11.690320862431088,12.658669365587441,9.446862801925965,5.007412714361609,10.87334631235049,2.089067496958187,9.01653594447413,3.9321620124077548,0.5760000000000001
12.07911331738228,12.706218650322915,9.514473336434895,5.006087921977101,10.77945847356167,2.073227846099772,8.85920628506459,4.045036127976889,0.5800000000000001
12.401121902616092,12.801231707732454,9.602889110479111,4.984035738602667,10.693104589701145,2.1101416488040785,8.756889424995842,4.168307834284758,0.5840000000000001
12.64800745641377,12.944375269263285,9.707473767823041,4.936071275282655,10.615290164070208,2.1952354734622097,8.713820833508345,4.3004630719891805,0.5880000000000001
12.81153357126197,13.130990527663592,9.820369284866453,4.8560260464160265,10.543843825595388,2.3193664098613094,8.729835462634572,4.438656613223563,0.5920000000000001
12.883859002952681,13.35124339644132,9.93099889463488,4.737463616735113,10.473654871034878,2.4693726969239407,8.800353467580178,4.578790764401369,0.5960000000000001
12.857858445058206,13.590632409784247,10.026747187602707,4.574397169056065,10.397139610341886,2.6289264206186984,8.916646065755804,4.7156125713769566,0.6000000000000001
12.72743477956591,13.830815265932694,10.093746776734784,4.361914619893631,10.304884073278123,2.779622103321971,9.066358288676723,4.842826546315846,0.6040000000000001
12.48780938283268,14.050707933274262,10.117716994270172,4.096655662071346,10.186413458162646,2.9022241007485348,9.23426580616269,4.953252677035907,0.6080000000000001
12.135789688799008,14.227790436732967,10.08480636662256,3.777113336277383,10.03103073661634,2.9779791064919188,9.403229585499185,5.039069004185274,0.6120000000000001
11.670020985819733,14.339534006412917,9.982395540654542,3.4037568216529426,9.828660348215765,2.9898891810559753,9.555295476716443,5.092170583310758,0.6160000000000001
11.091240461151274,14.364860521083079,9.799831963436526,2.9790001365138803,9.570641307605973,2.9238492632618325,9.672878208677666,5.104663396825635,0.6200000000000001
10.40256239968657,14.28555854461604,9.529089903457667,2.50706845650195,9.250436268905865,2.7695824768746413,9.739970996388932,5.06949428678401,0.6240000000000001
9.609822234526307,14.08759882295796,9.165366582739754,1.9938276448029388,8.864246605174385,2.5213443416979073,9.743325446318407,4.9811927466984685,0.6280000000000001
8.721985085457712,13.762301216612459,8.707624653814781,1.4466344506327349,8.41153408423464,2.178394623032651,9.673542690443826,4.836666267175407,0.6320000000000001
7.751582043427185,13.307295665738943,8.15906753170938,0.8742326559872229,7.895437899502863,1.7452384007934112,9.525998466722081,4.6359497718681295,0.6360000000000001
6.715084585209783,12.727193301207805,7.5274925863058515,0.2866713977858488,7.3230432818010085,1.2316160552702315,9.30149468003355,4.382769097092467,0.6400000000000001
5.633082915440094,12.033855303242602,6.825426116599085,-0.30482493719598364,6.705421369698629,0.652193366942921,9.006506701327039,4.084756678151732,0.6440000000000001
4.530121968996049,11.246142791786049,6.069929608805039,-0.8881239229540062,6.057346472305248,0.025894828150105614,8.652907808735511,3.753180072502459,0.6480000000000001
3.4340873351607986,10.389074455067377,5.281999536185725,-1.450648375455059,5.396628777457014,-0.6251445085042105,8.257118421746897,3.402126198351589,0.6520000000000001
2.3751193862406526,9.492410466341592,4.485560889343451,-1.9800227670564492,4.7430774877937045,-1.2769630646397296,7.838737674249938,3.047211097934087,0.6560000000000001
1.3841373417104472,8.588789633190276,3.706146670884699,-2.46481037672539,4.117200334326603,-1.9053687350977881,7.418826836961962,2.7040091763406533,0.6600000000000001
0.49113406172451235,7.71162454663272,2.969418821080099,-2.8952052823548335,3.5388064553804335,-2.487576751415784,7.018080428148974,2.386465457354795,0.6640000000000001
-0.2765671215659638,6.89297988000467,2.299698251258949,-3.2635547426130684,3.0256871411393234,-3.0037233619067814,6.65512203050563,2.1055485972365022,0.6680000000000001
-0.8959136769728046,6.161632086263842,1.7186446143399465,-3.564636790738554,2.592513820347063,-3.4381274289347705,6.345114336497894,1.8683381252733593,0.6720000000000002
-1.3494373919975828,5.541461259293762,1.244184599069106,-3.79567560919649,2.2500404685592477,-3.780216703777904,6.098804518522215,1.6776478264096981,0.6760000000000002
-1.6261804826682242,5.050272996743192,0.8897430586496539,-3.95612813934884,2.004643922360585,-4.0250741591610035,5.922053085187838,1.5321914232422547,0.6800000000000002
-1.7221905652566765,4.699091466502018,0.663785228217081,-4.047316881765557,1.858184725919539,-4.173595422040191,5.815824586562715,1.4272097175325484,0.6840000000000002
-1.640598781584952,4.491908749139432,0.5696353784133722,-4.072011869634912,1.8081280828124544,-4.232284519262218,5.776560309386355,1.3554099823007242,0.6880000000000002
-1.391341255615636,4.425831962268022,0.6055085856256003,-4.034071650436084,1.8478376110072174,-4.212748109978005,5.796812884656421,1.3080268738022476,0.6920000000000002
-0.9906048260584986,4.491550721146248,0.7646880682286424,-3.9382331828012433,1.9669519305959948,-4.130968330931728,5.866004113686844,1.275807257349272,0.6960000000000002
-0.4600669965623994,4.674058424628128,1.0358059647999716,-3.7900912391978694,2.151782709265103,-4.006428123341652,5.971181199425473,1.249760556937882,0.7000000000000002
0.17403654864439785,4.953593928961992,1.4032341662490058,-3.59623569079042,2.38573067771573,-3.861126316273431,6.0977035506387685,1.221604953466161,0.7040000000000002
0.8820192023795231,5.306798753124813,1.847636521635409,-3.364447992591213,2.6497769917166694,-3.718475332421812,6.22987258747104,1.183948522771207,0.7080000000000002
1.6320280820169994,5.708076622506257,2.3467375164608257,-3.1038362665202492,2.9231290327989092,-3.602062439647345,6.3515694250078765,1.1303169149172316,0.7120000000000002
2.3914639164842906,6.13109077391771,2.876313400346543,-2.824826868119936,3.1840629415617143,-3.5342951822478206,6.446955546956912,1.0551408043589756,0.7160000000000002
3.128434737056738,6.550273528900578,3.411339823022059,-2.539000071032953,3.41093579732345,-3.535018259679504,6.501238131991555,0.9537672829415261,0.7200000000000002
3.813111919655284,6.942196553787627,3.927181306131788,-2.2588113941499723,3.5832844796355308,-3.620237231523092,6.501452213122088,0.8225085470223922,0.7240000000000002
4.4188744491853305,7.286675025069688,4.40070487392931,-1.9972538767305152,3.68291134050574,-3.8010872082236524,6.4371951621629195,0.6587179565579503,0.7280000000000002
4.923178723814964,7.567538353287046,4.81123426486952,-1.7674971179595014,3.694874486669906,-4.0831452077356785,6.301261586132109,0.46088513394218494,0.7320000000000002
5.308155267347764,7.773070180562279,5.14131296770569,-1.5825036356573339,3.6083366033714532,-4.466121109341128,6.0901521915432895,0.22875400904464302,0.7360000000000002
5.560991230033267,7.896181133142124,5.377294877697211,-1.4545895449495019,3.417263020579471,-4.943897145020422,5.804452721121301,-0.03652240270719842,0.7400000000000002
5.674186313684209,7.9344088744871,5.509809074975222,-1.3948855763908015,3.120976745794273,-5.504845459160289,5.4490844886375704,-0.33218188789074227,0.7440000000000002
5.6457523555684,7.889827127507374,5.5341340599885855,-1.4126816488625895,2.7245622221866554,-6.132353861461792,5.033410777861077,-0.6536251203319162,0.7480000000000002
5.479369735309422,7.768895813920061,5.450473321179492,-1.514695805589998,2.2390692575812565,-6.805523961499975,4.57115524680339,-0.9942135130071718,0.7519999999999998
5.184448973614376,7.582227098626117,5.264077999856105,-1.7043643904486288,1.681432444084361,-7.500044548476168,4.080072024176165,-1.3451703625437557,0.7559999999999998
4.7760089466361295,7.344208397770988,4.98514467434391,-1.9812718538925387,1.0740174312249613,-8.189256234074344,3.5813173227924975,-1.6956608445074088,0.7599999999999998
4.2742886354549485,7.072426156154722,4.628435344618457,-2.340817535325025,0.4437398734415545,-8.845401647970398,3.098504929919192,-2.0331030619533497,0.7639999999999998
3.7040463356658573,6.786863424529174,4.212606555774336,-2.774172464688579,-0.17924055605385428,-9.44101437121383,2.656467639800662,-2.3437300252858413,0.7679999999999998
3.0935488490818837,6.508882633844912,3.7592752884256213,-3.2685350828907596,-0.7631894716761615,-9.950362160154725,2.2797854081582902,-2.6133857024671463,0.7719999999999998
2.4732981963990555,6.260040541448002,3.291880808159174,-3.80766159656509,-1.276717511293546,-10.350840383138367,1.991179838916971,-2.828496572272297,0.7759999999999998
1.8745742934271152,6.0608073642922164,2.8344197383766443,-4.372627396518383,-1.6908014710374306,-10.624215258543686,1.8099091639301614,-2.977121266059974,0.7799999999999998
1.3278846103746098,5.929273893137142,2.4101356436104884,-4.942769440342281,-1.980741898392899,-10.7576386267596,1.750315268301111,-3.0499588168730267,0.7839999999999998
0.8614142703921174,5.879936385242146,2.0402432029280257,-5.496755671925745,-2.1278925641948754,-10.744379302348777,1.8206684308042058,-3.0411958443275924,0.7879999999999998
0.49957565956493966,5.922658834887236,1.742771811762089,-6.013714109655072,-2.1210056516554485,-10.584223740352474,2.0224334524059677,-2.9490874664723745,0.7919999999999998
0.26176498330595227,6.061920364024602,1.5316204070060506,-6.474334331563178,-1.9570554328453618,-10.283495793906246,2.3500490887289214,-2.776188717107983,0.7959999999999998
0.16142606056049283,6.296441631242867,1.4159047918493555,-6.861848562203785,-1.6414466580520166,-9.854657439808472,2.791265488219333,-2.529186632770458,0.7999999999999998
0.2054844724060434,6.61923612651313,1.3996376810240303,-7.1628247045591875,-1.187588252720234,-9.315496982621253,3.3280160241174586,-2.2183360334544537,0.8039999999999998
0.39415837476898713,7.0180640834132,1.4817225645358192,-7.367750603531937,-0.6159018312513211,-8.68797585863089,3.9377228033421594,-1.8565689635508729,0.8079999999999998
0.7211040443419835,7.476209270984576,1.6561947133069876,-7.471430484111778,0.04759237248363727,-7.996858688837435,4.594875136152628,-1.4584063511212284,0.8119999999999998
1.173836376063271,7.973475911959992,1.9126291978499153,-7.4732283917164395,0.7729365047940263,-7.268269513550593,5.272697660353278,-1.0388273422099414,0.8159999999999998
1.7343796377022598,8.487318206646826,2.236660254747364,-7.377174361567519,1.5279812664305068,-6.528295098574944,5.944744836084851,-0.6122376138872593,0.8199999999999998
2.3801368075080993,8.99405232336554,2.610602822569154,-7.191909523277129,2.2801034078343756,-5.8017084615048065,6.586310771947132,-0.1916305692676715,0.8239999999999998
3.0849917962088647,9.470132460240576,3.014207218792738,-6.930411962940142,2.9978335498849202,-5.110840767974355,7.175602139840319,0.21202270394783676,0.8279999999999998
3.8206565079716093,9.893476060379616,3.4255868326902124,-6.60944077125616,3.652362671620502,-4.474612348745466,7.6946584607466635,0.5901601247553986,0.8319999999999999
4.558239522909639,10.244795500860983,3.822330347315304,-6.248669242390901,4.218892799405178,-3.9077470318203016,8.130008655781436,0.9368080417839746,0.8359999999999999
5.26995755340348,10.508849791871855,4.182757460030575,-5.869537715084719,4.67777533144429,-3.420220463369142,8.473040388555061,1.2485579074491895,0.8399999999999999
5.930856393171001,10.675494020041214,4.4872237875638925,-5.49391784688201,5.015361876984769,-3.0170074243715974,8.720053459269863,1.524333766666252,0.8439999999999999
6.520379222140775,10.740401242901298,4.7193525331804755,-5.1427157707416375,5.224499833758653,-2.698174445737745,8.87198925130969,1.764956909812376,0.8479999999999999
7.023631163480492,10.705372040259524,4.867081499949673,-4.83453677106234,5.304646301122783,-2.4593083183557964,8.933877623166874,1.9725568511039455,0.8519999999999999
7.432230195032567,10.578213200179166,4.923451451030349,-4.584501417796857,5.261631068661941,-2.2922015986270714,8.91409862867682,2.1499290922925325,0.8559999999999999
7.744679529997331,10.37222339844918,4.887095468201078,-4.403272936016392,5.107138503983688,-2.185671778583341,8.823584394306506,2.2999646862441168,0.8599999999999999
7.9662266812505,10.105345407302815,4.762398355352874,-4.296348972599502,4.857977215272676,-2.1263973309718005,8.675066566762538,2.425253728565031,0.8639999999999999
8.108193207717497,9.79903465299042,4.559285768310226,-4.2636834384657485,4.535171970279143,-2.099705315537514,8.482417039496008,2.5279029508525808,0.8679999999999999
8.186788626723885,9.476880934566706,4.292602133291532,-4.299709729526035,4.162876730437177,-2.0903061418548177,8.260068798520898,2.609539541422585,0.8719999999999999
8.221483015595984,9.163035617895387,3.9810729453425857,-4.393807412257794,3.7671068713961673,-2.08300002403197,8.022476774213617,2.671436061188871,0.8759999999999999
8.23310034897215,8.880547618262709,3.6459227986466516,-4.531186117022101,3.3743323254170914,-2.063361152964152,7.783596522950492,2.714697702343182,0.8799999999999999
8.241872563150723,8.649770769745531,3.309303951824557,-4.694080273095205,3.010034879055615,-2.0183615855273764,7.55639823764941,2.7404832617510295,0.8839999999999999
8.265718719071826,8.48703140536685,2.9927376271871133,-4.863096755578176,2.6973707752090603,-1.9368679966082638,7.352459583122642,2.7502524069571224,0.8879999999999999
8.318962888624581,8.403712287648013,2.715755052513304,-5.018559982819535,2.4560680229621172,-1.8099601334265045,7.1816725307855656,2.7460249546557898,0.8919999999999999
8.411594353475792,8.405824403483047,2.494854193495541,-5.141749821686414,2.301631030013533,-1.6310773300013661,7.0520605467578195,2.730607465972785,0.8959999999999999
8.549047997364463,8.494036454030127,2.3427952225941846,-5.215995707267915,2.244851804431773,-1.3960655556849104,6.969654923218324,2.707708396502903,0.8999999999999999
8.732386875267437,8.664053723145145,2.2681826314601414,-5.227640980528526,2.2915695178305584,-1.103231256295378,6.938350872794788,2.681848047068884,0.9039999999999999
8.958729211459756,8.907208464323132,2.2752499708294627,-5.166904768296427,2.442599684861292,-0.753486744511464,6.959676996974856,2.6579917015902157,0.9079999999999999
9.221782002220507,9.211146209999313,2.363780130336115,-5.028643019118316,2.6937759685139695,-0.35060086593133616,7.03246947286258,2.6408999101532245,0.9119999999999999
9.512408896598215,9.560552415725901,2.5291490425123966,-4.812956935508103,3.0361021073327397,0.0985233230548026,7.152526416581729,2.6342851906114064,0.9159999999999999
9.81924068015467,9.937933334869822,2.7625469526469097,-4.525539790923214,3.4560729594831123,0.5836952523492691,7.312392324764436,2.639953867524611,0.9199999999999999
